LabVIEW Measurement	
Writer_Version	2
Reader_Version	2
Separator	Tab
Decimal_Separator	.
Multi_Headings	No
X_Columns	No
Time_Pref	Absolute
Operator	mechlab
Description	Data file
Date	2024/02/16
Time	13:00:24.8299999237060546875
***End_of_Header***	
	
Channels	6						
Samples	1	1	1	1	1	1	
Date	2024/02/16	2024/02/16	2024/02/16	2024/02/16	2024/02/16	2024/02/16	
Time	13:00:24.8299999237060546875	13:00:24.9390001296997070313	13:00:25.0469999313354492188	13:00:25.1560001373291015625	13:00:25.2649998664855957031	13:00:25.3699998855590820312	
X_Dimension	Time	Time	Time	Time	Time	Time	
X0	0.0000000000000000E+0	0.0000000000000000E+0	0.0000000000000000E+0	0.0000000000000000E+0	0.0000000000000000E+0	0.0000000000000000E+0	
Delta_X	1.000000	1.000000	1.000000	1.000000	1.000000	1.000000	
***End_of_Header***							
X_Value	Untitled	Untitled 1	Untitled 2	Untitled 3	Untitled 4	Untitled 5	Comment
	0.000000	303.517942	-37.070936	32.256225	-5.003745E-6	9.158998E-6
	0.546000	361.642346	-37.067941	32.256811	-1.255902E-5	2.799101E-5
	1.090000	421.895353	-37.063552	32.253789	-1.939245E-5	4.647133E-5
	1.633000	479.090707	-37.052133	32.253752	-2.610281E-5	6.327056E-5
	2.176000	544.616920	-37.054123	32.251697	-3.365403E-5	7.968743E-5
	2.720000	604.915012	-37.048774	32.252844	-3.976298E-5	9.717084E-5
	3.267000	659.786936	-37.048371	32.253913	-4.614141E-5	0.000113
	3.809000	708.925156	-37.051105	32.254711	-5.136582E-5	0.000130
	4.356000	761.620172	-37.039680	32.255655	-5.780496E-5	0.000144
	4.884000	801.492042	-37.040498	32.257198	-6.326772E-5	0.000159
	5.430000	862.500207	-37.025156	32.259191	-6.779514E-5	0.000174
	5.977000	910.002525	-37.034060	32.255764	-7.325655E-5	0.000190
	6.523000	958.305084	-37.039380	32.256069	-7.859617E-5	0.000204
	7.067000	1003.503294	-37.036769	32.256822	-8.406740E-5	0.000219
	7.612000	1055.439936	-37.027710	32.263542	-8.911503E-5	0.000234
	8.158000	1085.779784	-37.036640	32.257354	-9.241136E-5	0.000241
	8.701000	1120.990303	-37.031139	32.262579	-9.538351E-5	0.000250
	9.248000	1132.860248	-37.021260	32.260845	-9.906234E-5	0.000258
	9.791000	1159.894481	-37.027388	32.261685	-0.000103	0.000266
	10.335000	1179.646056	-37.017585	32.265360	-0.000100	0.000254
	10.879000	1125.236240	-37.009135	32.262824	-9.549902E-5	0.000241
	11.429000	1084.870056	-37.020590	32.260767	-8.970996E-5	0.000226
	11.974000	1039.274141	-37.020954	32.263659	-8.390842E-5	0.000215
	12.517000	1003.606343	-37.018506	32.264743	-7.936004E-5	0.000202
	13.061000	954.015673	-37.035780	32.267155	-7.546246E-5	0.000189
	13.604000	908.197560	-37.033220	32.265572	-7.099349E-5	0.000178
	14.147000	867.765361	-37.027591	32.265910	-6.618664E-5	0.000166
	14.691000	825.178796	-37.032788	32.260841	-6.084439E-5	0.000153
	15.236000	787.102231	-37.040675	32.261106	-5.680009E-5	0.000142
	15.785000	740.921836	-37.035596	32.260565	-5.147016E-5	0.000128
	16.328000	702.235029	-37.036765	32.259581	-4.719102E-5	0.000118
	16.872000	658.295948	-37.039873	32.262574	-4.247833E-5	0.000105
	17.418000	621.926130	-37.034994	32.258160	-3.726873E-5	9.352653E-5
	17.962000	577.532990	-37.053765	32.257027	-3.206777E-5	8.082655E-5
	18.505000	532.734095	-37.049698	32.257475	-2.724065E-5	7.020751E-5
	19.050000	483.336644	-37.047734	32.258814	-2.341967E-5	5.761181E-5
	19.594000	452.149863	-37.064608	32.258732	-1.792043E-5	4.592498E-5
	20.141000	416.535201	-37.047837	32.261175	-1.417763E-5	3.332382E-5
	20.684000	366.667589	-37.048520	32.256919	-1.101244E-5	2.179367E-5
	21.233000	330.621410	-37.062116	32.257925	-5.822383E-6	1.098814E-5
	21.774000	292.266291	-37.054825	32.260513	-1.136621E-6	-2.048646E-6
	22.323000	242.583845	-37.052468	32.259119	2.524315E-6	-1.395107E-5
	22.868000	207.159180	-37.061955	32.260811	6.526906E-6	-2.432902E-5
	23.412000	171.554178	-37.059858	32.255090	1.084259E-5	-3.601020E-5
	23.957000	127.428322	-37.062953	32.256983	1.477692E-5	-4.786789E-5
	24.499000	92.992282	-37.064972	32.255281	1.902931E-5	-6.021664E-5
	25.045000	45.433609	-37.065278	32.260858	2.507566E-5	-7.031805E-5
	25.588000	18.433190	-37.082233	32.253992	2.985365E-5	-7.938902E-5
	26.133000	-13.473322	-37.076330	32.255645	3.553984E-5	-9.112981E-5
	26.678000	-65.332675	-37.073928	32.254233	4.026203E-5	-0.000101
	27.224000	-98.648059	-37.079673	32.253256	4.326359E-5	-0.000113
	27.768000	-146.738077	-37.068044	32.252254	4.772744E-5	-0.000125
	28.314000	-186.503677	-37.074820	32.255167	5.206957E-5	-0.000132
	28.861000	-190.615972	-37.074173	32.250691	4.793491E-5	-0.000121
	29.405000	-147.176035	-37.079087	32.252795	4.298654E-5	-0.000107
	29.953000	-103.834316	-37.074450	32.256148	3.788168E-5	-9.506895E-5
	30.495000	-62.405443	-37.081715	32.255734	3.301167E-5	-8.330752E-5
	31.038000	-16.640465	-37.078082	32.253150	2.831440E-5	-7.023026E-5
	31.582000	26.973367	-37.078047	32.254769	2.284445E-5	-5.887180E-5
	32.127000	63.528350	-37.057176	32.253993	1.323896E-5	-3.315699E-5
	32.670000	166.870284	-37.057726	32.256478	2.364063E-6	-1.231645E-6
	33.219000	275.649658	-37.048520	32.251771	-8.311830E-6	2.953975E-5
	33.762000	380.556647	-37.050777	32.255971	-1.754777E-5	6.117414E-5
	34.306000	485.964390	-37.052081	32.256198	-2.884183E-5	8.914315E-5
	34.851000	574.634740	-37.048449	32.255940	-4.038282E-5	0.000117
	35.395000	691.733703	-37.030521	32.256293	-5.157822E-5	0.000148
	35.938000	788.335597	-37.033645	32.258059	-6.264046E-5	0.000176
	36.481000	885.061473	-37.040623	32.262167	-7.386516E-5	0.000205
	37.027000	980.700506	-37.021305	32.258684	-8.450087E-5	0.000233
	37.570000	1079.662867	-37.022747	32.261210	-9.495502E-5	0.000260
	38.116000	1173.659559	-37.012951	32.260714	-0.000106	0.000286
	38.660000	1239.161623	-37.008217	32.260300	-0.000116	0.000310
	39.206000	1302.583387	-37.015434	32.262213	-0.000127	0.000339
	39.750000	1338.497538	-37.009502	32.264666	-0.000142	0.000378
	40.294000	1383.011441	-37.006572	32.267255	-0.000158	0.000422
	40.839000	1428.143637	-36.990960	32.264282	-0.000177	0.000472
	41.383000	1464.973957	-36.985504	32.267538	-0.000196	0.000522
	41.929000	1488.214704	-36.979981	32.268939	-0.000216	0.000568
	42.470000	1530.153995	-36.969976	32.273644	-0.000236	0.000618
	43.018000	1544.244321	-36.967090	32.272371	-0.000258	0.000669
	43.560000	1572.276842	-36.962888	32.276164	-0.000281	0.000721
	44.105000	1591.073605	-36.960879	32.270210	-0.000306	0.000774
	44.647000	1601.093501	-36.957549	32.280578	-0.000332	0.000823
	45.196000	1630.919716	-36.968169	32.283404	-0.000358	0.000876
	45.739000	1642.451532	-36.958563	32.286951	-0.000387	0.000935
	46.288000	1661.811844	-36.932623	32.288266	-0.000415	0.000990
	46.831000	1672.013685	-36.947804	32.287479	-0.000446	0.001046
	47.374000	1687.955672	-36.934694	32.294361	-0.000477	0.001104
	47.916000	1706.188887	-36.933554	32.299902	-0.000507	0.001162
	48.463000	1712.478090	-36.930102	32.299874	-0.000538	0.001219
	49.010000	1720.744544	-36.917205	32.298638	-0.000569	0.001279
	49.551000	1730.295889	-36.918525	32.308027	-0.000604	0.001337
	50.093000	1754.143659	-36.923645	32.306624	-0.000635	0.001396
	50.635000	1760.727518	-36.915720	32.308945	-0.000668	0.001452
	51.180000	1771.752140	-36.900098	32.306396	-0.000700	0.001511
	51.723000	1777.210512	-36.900504	32.313004	-0.000735	0.001570
	52.272000	1793.424612	-36.894298	32.319308	-0.000770	0.001633
	52.815000	1809.292533	-36.877475	32.316347	-0.000804	0.001691
	53.362000	1809.535664	-36.886962	32.317366	-0.000836	0.001751
	53.906000	1817.393142	-36.884190	32.321786	-0.000868	0.001809
	54.453000	1812.870262	-36.882023	32.324106	-0.000901	0.001866
	54.997000	1830.304848	-36.866005	32.323879	-0.000935	0.001923
	55.542000	1841.701412	-36.875875	32.327845	-0.000967	0.001981
	56.087000	1853.634153	-36.855877	32.325589	-0.001001	0.002038
	56.629000	1853.658305	-36.865654	32.329117	-0.001034	0.002099
	57.175000	1861.341889	-36.856241	32.333914	-0.001067	0.002157
	57.716000	1870.131639	-36.849945	32.341825	-0.001098	0.002214
	58.267000	1875.984494	-36.859210	32.338370	-0.001131	0.002269
	58.809000	1883.247832	-36.863892	32.343435	-0.001164	0.002327
	59.357000	1890.007196	-36.828269	32.346714	-0.001197	0.002386
	59.902000	1896.946895	-36.835682	32.345958	-0.001230	0.002442
	60.445000	1899.481254	-36.829171	32.349559	-0.001261	0.002499
	60.990000	1907.847537	-36.817693	32.353541	-0.001292	0.002555
	61.531000	1915.339514	-36.823548	32.350388	-0.001323	0.002611
	62.078000	1918.859278	-36.811665	32.354948	-0.001355	0.002667
	62.620000	1926.472016	-36.806413	32.357298	-0.001387	0.002726
	63.165000	1933.685439	-36.798394	32.360378	-0.001419	0.002783
	63.707000	1937.403251	-36.805704	32.365807	-0.001452	0.002839
	64.257000	1942.304514	-36.791693	32.362339	-0.001483	0.002894
	64.798000	1951.720608	-36.794523	32.366766	-0.001513	0.002950
	65.338000	1950.553257	-36.797850	32.369113	-0.001544	0.003004
	65.886000	1958.539547	-36.790717	32.374462	-0.001574	0.003060
	66.433000	1966.962185	-36.775871	32.376288	-0.001605	0.003116
	66.978000	1973.657143	-36.772528	32.377428	-0.001636	0.003172
	67.520000	1965.894662	-36.767070	32.381470	-0.001713	0.003354
	68.064000	1989.059734	-36.729099	32.386516	-0.001874	0.003656
	68.605000	2013.139365	-36.729428	32.383697	-0.002030	0.003941
	69.149000	2036.581381	-36.688694	32.385703	-0.002178	0.004220
	69.699000	2066.616916	-36.674322	32.395021	-0.002326	0.004499
	70.244000	2082.964659	-36.656223	32.404665	-0.002472	0.004773
	70.788000	2105.938125	-36.642653	32.406040	-0.002612	0.005040
	71.331000	2127.006796	-36.614263	32.416447	-0.002752	0.005304
	71.876000	2153.316470	-36.589865	32.429773	-0.002893	0.005573
	72.418000	2168.590250	-36.555311	32.438164	-0.003029	0.005836
	72.964000	2182.583969	-36.551106	32.445041	-0.003148	0.006098
	73.506000	2202.752573	-36.519092	32.456679	-0.003282	0.006353
	74.051000	2213.389152	-36.497719	32.466019	-0.003415	0.006620
	74.595000	2231.669063	-36.476162	32.481478	-0.003550	0.006881
	75.140000	2247.372750	-36.460351	32.487959	-0.003682	0.007143
	75.681000	2257.238073	-36.423668	32.500061	-0.003813	0.007400
	76.225000	2284.085534	-36.420158	32.508927	-0.003944	0.007666
	76.768000	2298.045441	-36.381382	32.521735	-0.004077	0.007925
	77.314000	2307.229675	-36.358344	32.532402	-0.004209	0.008188
	77.859000	2316.520179	-36.336929	32.544529	-0.004338	0.008447
	78.401000	2332.718179	-36.314927	32.551947	-0.004469	0.008706
	78.946000	2346.595969	-36.288862	32.563455	-0.004598	0.008968
	79.491000	2359.063277	-36.274013	32.574469	-0.004729	0.009231
	80.037000	2368.360221	-36.253803	32.589202	-0.004858	0.009487
	80.580000	2388.722042	-36.220798	32.597530	-0.004986	0.009747
	81.127000	2392.507479	-36.203665	32.605936	-0.005113	0.010001
	81.670000	2402.055605	-36.192185	32.617362	-0.005240	0.010263
	82.217000	2421.580154	-36.144991	32.627788	-0.005367	0.010517
	82.760000	2433.794670	-36.125598	32.640436	-0.005491	0.010774
	83.300000	2441.930704	-36.110933	32.652814	-0.005615	0.011025
	83.844000	2450.247073	-36.080163	32.657142	-0.005739	0.011280
	84.385000	2462.872175	-36.070750	32.668086	-0.005863	0.011536
	84.931000	2472.343014	-36.037993	32.676403	-0.005987	0.011790
	85.472000	2485.417345	-36.010875	32.686840	-0.006106	0.012043
	86.018000	2489.650401	-35.990120	32.700371	-0.006229	0.012293
	86.562000	2500.919766	-35.980964	32.710565	-0.006350	0.012543
	87.107000	2512.382347	-35.947975	32.721218	-0.006474	0.012801
	87.650000	2522.505293	-35.925224	32.726772	-0.006593	0.013053
	88.194000	2536.759856	-35.905937	32.739847	-0.006713	0.013303
	88.738000	2538.374826	-35.869709	32.754902	-0.006836	0.013561
	89.302000	2555.519589	-35.861700	32.758458	-0.006954	0.013806
	89.846000	2568.912727	-35.838948	32.768450	-0.007073	0.014060
	90.389000	2567.176997	-35.800143	32.782624	-0.007194	0.014317
	90.935000	2585.948001	-35.800594	32.794364	-0.007314	0.014569
	91.479000	2584.709804	-35.756376	32.802506	-0.007433	0.014818
	92.027000	2600.162311	-35.746892	32.814762	-0.007551	0.015062
	92.570000	2604.392147	-35.730643	32.825376	-0.007661	0.015304
	93.117000	2614.595600	-35.688630	32.832984	-0.007779	0.015559
	93.664000	2618.862469	-35.683330	32.847750	-0.007896	0.015816
	94.208000	2623.155100	-35.665238	32.850891	-0.008016	0.016073
	94.750000	2644.508768	-35.636480	32.864531	-0.008132	0.016320
	95.297000	2651.878376	-35.606786	32.879228	-0.008241	0.016557
	95.842000	2657.515473	-35.574818	32.890007	-0.008347	0.016791
	96.390000	2669.395081	-35.570422	32.898848	-0.008459	0.017039
	96.935000	2673.979148	-35.538106	32.911971	-0.008579	0.017305
	97.477000	2676.053008	-35.517709	32.920092	-0.008704	0.017573
	98.021000	2686.298324	-35.503903	32.932832	-0.008821	0.017821
	98.563000	2693.419970	-35.485734	32.942462	-0.008922	0.018042
	99.108000	2701.473887	-35.451435	32.956017	-0.009017	0.018254
	99.653000	2709.270182	-35.439349	32.961860	-0.009118	0.018480
	100.203000	2718.969662	-35.411255	32.973634	-0.009235	0.018755
	100.749000	2712.933249	-35.386242	32.987588	-0.009377	0.019163
	101.292000	2728.810833	-35.367497	32.993171	-0.009555	0.019506
	101.839000	2735.982394	-35.350858	33.009866	-0.009654	0.019692
	102.389000	2736.975850	-35.323021	33.019148	-0.009711	0.019818
	102.935000	2746.090849	-35.295407	33.027628	-0.009761	0.019932
	103.486000	2751.328632	-35.263271	33.041018	-0.009815	0.020069
	104.030000	2763.042396	-35.246870	33.049114	-0.009906	0.020292
	104.589000	2768.962878	-35.220509	33.057225	-0.010073	0.020698
	105.134000	2772.603403	-35.195555	33.070221	-0.010309	0.021271
	105.695000	2785.577906	-35.183156	33.077404	-0.010486	0.021577
	106.240000	2791.134497	-35.158936	33.087924	-0.010556	0.021714
	106.786000	2788.904455	-35.128884	33.096469	-0.010602	0.021821
	107.329000	2795.811952	-35.095754	33.109980	-0.010639	0.021905
	107.889000	2807.594952	-35.092009	33.120387	-0.010676	0.021998
	108.432000	2813.575010	-35.063345	33.129183	-0.010734	0.022151
	108.974000	2819.625914	-35.030752	33.139722	-0.010869	0.022506
	109.533000	2819.101008	-35.006931	33.148672	-0.011146	0.023221
	110.076000	2829.269038	-34.997930	33.161781	-0.011391	0.023639
	110.619000	2835.906033	-34.965131	33.169901	-0.011456	0.023763
	111.165000	2847.885470	-34.945043	33.183038	-0.011499	0.023855
	111.708000	2851.405235	-34.933340	33.194795	-0.011539	0.023920
	112.270000	2850.703214	-34.906979	33.201440	-0.011571	0.024023
	112.812000	2863.690598	-34.884659	33.208976	-0.011611	0.024136
	113.354000	2863.024000	-34.861853	33.222754	-0.011670	0.024294
	113.899000	2868.957364	-34.835884	33.232419	-0.011819	0.024776
	114.443000	2873.765240	-34.810614	33.243191	-0.009867	0.018392
	114.987000	2864.782273	-34.792207	33.255776	-0.009311	0.016747
	115.533000	2888.509287	-34.771053	33.267132	-0.009091	0.016063
	116.077000	2887.180922	-34.742125	33.275331	-0.008933	0.015670
	116.617000	2892.739123	-34.713953	33.288042	-0.008834	0.015438
	117.163000	2900.187628	-34.706115	33.295930	-0.008770	0.015295
	117.702000	2908.289850	-34.674752	33.308685	-0.008725	0.015190
	118.247000	2906.864876	-34.651598	33.317721	-0.008686	0.015106
	118.789000	2909.040175	-34.636015	33.331525	-0.008648	0.015038
	119.336000	2913.555005	-34.610014	33.341240	-0.008628	0.015108
	119.878000	2928.965650	-34.583920	33.350020	-0.008770	0.015334
	120.426000	2921.505874	-34.574620	33.356471	-0.008376	0.015174
	120.971000	2933.475650	-34.538185	33.369373	-0.008277	0.015061
	121.519000	2938.991988	-34.518309	33.376373	-0.008210	0.014977
	122.062000	2941.007882	-34.490116	33.390485	-0.008160	0.014915
	122.610000	2947.623946	-34.478957	33.394987	-0.008121	0.014873
	123.154000	2944.516376	-34.452943	33.410967	-0.008089	0.014832
	123.697000	2959.036614	-34.418863	33.413342	-0.008061	0.014798
	124.241000	2958.295950	-34.396369	33.430953	-0.008036	0.014776
	124.787000	2960.550145	-34.371965	33.442675	-0.008022	0.014924
	125.330000	2961.617667	-34.359899	33.454151	-0.008086	0.015177
	125.877000	2971.835612	-34.325841	33.461598	-0.007993	0.014983
	126.418000	2974.035063	-34.314090	33.473578	-0.007916	0.014862
	126.965000	2976.904331	-34.276473	33.480624	-0.007840	0.014719
	127.507000	2991.527617	-34.257860	33.496367	-0.007784	0.014631
	128.054000	3007.562996	-34.238480	33.506668	-0.007742	0.014568
	128.597000	2991.249063	-34.225435	33.519727	-0.007703	0.014515
	129.140000	2997.401406	-34.194916	33.531692	-0.007666	0.014466
	129.685000	3005.830486	-34.178441	33.543374	-0.007629	0.014412
	130.228000	3012.963404	-34.143809	33.554285	-0.007594	0.014394
	130.773000	3019.608449	-34.136831	33.562824	-0.007603	0.014576
	131.316000	3015.199888	-34.106006	33.573604	-0.007510	0.014397
	131.861000	3017.030616	-34.082884	33.581947	-0.007362	0.010821
	132.406000	3013.588138	-34.070167	33.596155	-0.004293	0.004870
	132.951000	3028.641332	-34.035439	33.610853	-0.004178	0.004657
	133.494000	3033.676238	-34.006704	33.619471	-0.004109	0.004526
	134.038000	3035.753318	-34.001162	33.636568	-0.004060	0.004431
	134.585000	3036.072125	-33.969065	33.651165	-0.004022	0.004358
	135.130000	3042.828270	-33.949029	33.663370	-0.003990	0.004296
	135.691000	3051.774205	-33.917866	33.671160	-0.003964	0.004242
	136.240000	3051.114048	-33.901220	33.679617	-0.003939	0.004194
	136.785000	3056.369543	-33.889253	33.693447	-0.003907	0.004146
	137.329000	3063.975842	-33.846088	33.703376	-0.003873	0.004113
	137.872000	3058.544842	-33.824802	33.713343	-0.003877	0.004099
	138.414000	3059.303218	-33.825861	33.730973	-0.003877	0.004081
	138.958000	3064.404139	-33.794206	33.737792	-0.003873	0.004063
	139.501000	3068.398895	-33.757710	33.747230	-0.003867	0.004045
	140.045000	3077.908379	-33.744284	33.759480	-0.003860	0.004028
	140.587000	3077.926091	-33.718206	33.767562	-0.003852	0.004011
	141.129000	3087.491929	-33.705206	33.779017	-0.003844	0.003995
	141.671000	3082.635749	-33.682763	33.788841	-0.003836	0.003978
	142.216000	3088.193950	-33.653272	33.797752	-0.003827	0.003961
	142.760000	3083.397344	-33.617697	33.812593	-0.003811	0.003940
	143.303000	3089.763836	-33.614641	33.823001	-0.003786	0.003916
	143.846000	3096.935397	-33.580303	33.829703	-0.003778	0.003917
	144.388000	3095.507204	-33.557471	33.838550	-0.003806	0.003929
	144.934000	3103.891200	-33.535685	33.847032	-0.003831	0.003922
	145.481000	3109.433300	-33.514244	33.863532	-0.003827	0.003915
	146.026000	3112.429770	-33.489967	33.873414	-0.003824	0.003907
	146.567000	3121.309689	-33.475304	33.885154	-0.003820	0.003899
	147.112000	3114.941587	-33.453886	33.897390	-0.003817	0.003889
	147.656000	3126.676284	-33.423013	33.910112	-0.003814	0.003880
	148.201000	3125.259361	-33.395776	33.917576	-0.003811	0.003871
	148.747000	3123.051860	-33.368235	33.926942	-0.003807	0.003862
	149.292000	3130.408587	-33.343880	33.936289	-0.003802	0.003849
	149.836000	3124.011503	-33.320620	33.944566	-0.003792	0.003830
	150.380000	3135.744590	-33.327711	33.957522	-0.003773	0.003806
	150.927000	3136.235682	-33.303085	33.964637	-0.003772	0.003794
	151.471000	3142.991827	-33.266100	33.973480	-0.003791	0.003798
	152.013000	3146.212106	-33.243854	33.985393	-0.003800	0.003797
	152.556000	3148.255373	-33.203368	33.999147	-0.003799	0.003794
	153.100000	3156.447763	-33.186526	34.006830	-0.003800	0.003789
	153.641000	3155.689387	-33.179342	34.016338	-0.003798	0.003785
	154.184000	3165.490307	-33.156996	34.029224	-0.003798	0.003779
	154.727000	3164.669135	-33.133984	34.043760	-0.003797	0.003773
	155.272000	3168.589825	-33.105361	34.049676	-0.003802	0.003770
	155.818000	3163.735254	-33.081531	34.061551	-0.003822	0.003772
	156.362000	3162.889931	-33.054030	34.072288	-0.003827	0.003767
	156.906000	3171.848747	-33.044894	34.086886	-0.003830	0.003758
	157.449000	3176.204175	-33.005886	34.099595	-0.003899	0.003773
	157.991000	3181.467721	-32.980397	34.103863	-0.003896	0.003763
	158.533000	3175.289616	-32.967870	34.114092	-0.003901	0.003765
	159.079000	3181.280945	-32.936553	34.126215	-0.003906	0.003767
	159.624000	3185.172652	-32.918471	34.142575	-0.003907	0.003764
	160.170000	3189.891971	-32.899480	34.153265	-0.003915	0.003770
	160.714000	3188.911396	-32.893491	34.168459	-0.003917	0.003768
	161.261000	3199.240441	-32.843370	34.179303	-0.003916	0.003766
	161.807000	3198.928074	-32.840394	34.189680	-0.003916	0.003764
	162.349000	3201.084051	-32.807978	34.197361	-0.003915	0.003763
	162.895000	3209.152460	-32.787111	34.208170	-0.003914	0.003761
	163.437000	3207.431221	-32.771296	34.220918	-0.003913	0.003758
	163.983000	3210.870479	-32.741305	34.235531	-0.003912	0.003753
	164.525000	3211.725463	-32.717971	34.250714	-0.003908	0.003746
	165.071000	3214.852354	-32.699831	34.252644	-0.003901	0.003737
	165.615000	3219.911412	-32.677163	34.263502	-0.003899	0.003733
	166.158000	3220.006410	-32.659780	34.275423	-0.003908	0.003742
	166.702000	3224.716069	-32.621329	34.286478	-0.003913	0.003743
	167.242000	3222.468314	-32.607495	34.298907	-0.003917	0.003739
	167.784000	3226.124941	-32.586221	34.309161	-0.003921	0.003737
	168.351000	3227.801096	-32.562900	34.323291	-0.004014	0.003863
	168.897000	3230.572146	-32.545230	34.334522	-0.004023	0.003863
	169.441000	3234.681222	-32.518283	34.348758	-0.004027	0.003863
	169.982000	3238.819281	-32.500580	34.364124	-0.004029	0.003861
	170.525000	3244.543327	-32.468497	34.368623	-0.004030	0.003859
	171.070000	3244.076386	-32.442019	34.382545	-0.004030	0.003858
	171.616000	3244.255112	-32.436403	34.397461	-0.004031	0.003855
	172.160000	3249.678062	-32.405459	34.402380	-0.004032	0.003851
	172.709000	3248.842399	-32.383883	34.418735	-0.004031	0.003848
	173.252000	3249.251375	-32.353473	34.422788	-0.004031	0.003843
	173.797000	3252.764699	-32.341066	34.432402	-0.004032	0.003838
	174.342000	3254.242807	-32.308666	34.441200	-0.004037	0.003840
	174.887000	3260.443455	-32.291643	34.452860	-0.004041	0.003843
	175.449000	3262.979424	-32.281702	34.466856	-0.004039	0.003843
	175.992000	3258.493576	-32.240508	34.482646	-0.004039	0.003839
	176.536000	3258.382476	-32.203101	34.495352	-0.004041	0.003838
	177.082000	3265.318957	-32.199298	34.506140	-0.004039	0.003839
	177.625000	3266.714949	-32.173229	34.518603	-0.004036	0.003840
	178.169000	3274.559548	-32.147296	34.533982	-0.004034	0.003840
	178.712000	3274.482261	-32.126812	34.544496	-0.004034	0.003838
	179.253000	3277.797539	-32.100054	34.557474	-0.004035	0.003837
	179.799000	3275.425803	-32.084223	34.571119	-0.004036	0.003834
	180.346000	3272.651533	-32.061285	34.583608	-0.004035	0.003833
	180.890000	3277.942451	-32.043857	34.588728	-0.004035	0.003832
	181.436000	3281.576536	-32.005062	34.594720	-0.004035	0.003830
	181.976000	3292.723532	-31.999767	34.603862	-0.004034	0.003826
	182.525000	3283.349300	-31.977241	34.617250	-0.004038	0.003826
	183.069000	3290.623911	-31.950973	34.629937	-0.004043	0.003826
	183.610000	3293.820038	-31.924300	34.634833	-0.004044	0.003827
	184.157000	3300.321781	-31.900981	34.650481	-0.004042	0.003827
	184.701000	3303.635448	-31.871519	34.660759	-0.004041	0.003826
	185.243000	3298.283344	-31.853836	34.674862	-0.004041	0.003825
	185.787000	3298.133601	-31.835934	34.688848	-0.004039	0.003824
	186.330000	3303.447062	-31.818570	34.703258	-0.004038	0.003824
	186.877000	3306.235824	-31.785369	34.720033	-0.004037	0.003823
	187.421000	3310.257952	-31.775892	34.730287	-0.004038	0.003820
	187.967000	3314.471688	-31.749794	34.742244	-0.004036	0.003820
	188.510000	3309.227463	-31.730305	34.754527	-0.004035	0.003820
	189.052000	3307.662408	-31.699119	34.764766	-0.004035	0.003817
	189.595000	3314.191523	-31.688502	34.776935	-0.004036	0.003813
	190.141000	3312.784261	-31.654051	34.783644	-0.004036	0.003811
	190.686000	3313.017732	-31.631483	34.793191	-0.004036	0.003809
	191.229000	3320.450136	-31.601744	34.806126	-0.004033	0.003807
	191.776000	3321.524099	-31.579800	34.813540	-0.004034	0.003806
	192.316000	3321.905702	-31.555210	34.826458	-0.004039	0.003807
	192.862000	3325.887577	-31.539872	34.839606	-0.004038	0.003807
	193.405000	3326.720019	-31.521336	34.848737	-0.004036	0.003806
	193.950000	3330.890281	-31.495316	34.862917	-0.004036	0.003805
	194.492000	3327.161197	-31.462031	34.875707	-0.004034	0.003805
	195.036000	3325.406146	-31.437215	34.894377	-0.004034	0.003803
	195.580000	3336.688394	-31.430839	34.907203	-0.004034	0.003803
	196.126000	3338.816998	-31.391973	34.925042	-0.004033	0.003801
	196.668000	3337.509565	-31.377700	34.935435	-0.004034	0.003798
	197.209000	3346.507025	-31.353335	34.949745	-0.004034	0.003797
	197.756000	3341.831179	-31.323119	34.961417	-0.004033	0.003797
	198.302000	3340.602643	-31.308238	34.970500	-0.004033	0.003796
	198.847000	3343.032343	-31.274576	34.979978	-0.004035	0.003793
	199.389000	3344.120798	-31.269987	34.983873	-0.004034	0.003793
	199.932000	3348.466565	-31.237691	34.994984	-0.004033	0.003791
	200.472000	3355.127712	-31.228255	35.003468	-0.004031	0.003788
	201.017000	3363.519759	-31.199453	35.007630	-0.004032	0.003787
	201.565000	3356.684717	-31.182247	35.023441	-0.004035	0.003791
	202.108000	3355.992357	-31.145403	35.031511	-0.004038	0.003792
	202.653000	3357.024456	-31.136048	35.042540	-0.004039	0.003792
	203.202000	3363.635690	-31.100519	35.060196	-0.004039	0.003791
	203.746000	3358.101640	-31.098625	35.070398	-0.004037	0.003792
	204.293000	3359.974232	-31.050971	35.085445	-0.004036	0.003791
	204.839000	3362.650284	-31.049989	35.098651	-0.004036	0.003791
	205.384000	3378.762951	-31.004824	35.117115	-0.004036	0.003791
	205.926000	3365.358539	-30.986256	35.131417	-0.004036	0.003790
	206.472000	3381.474426	-30.954674	35.144433	-0.004035	0.003789
	207.017000	3374.016260	-30.942695	35.150688	-0.004035	0.003789
	207.558000	3373.533218	-30.915850	35.165264	-0.004036	0.003789
	208.101000	3372.879501	-30.899266	35.173962	-0.004036	0.003788
	208.648000	3378.139827	-30.880971	35.182545	-0.004038	0.003787
	209.192000	3374.212697	-30.849142	35.187557	-0.004037	0.003787
	209.736000	3388.311079	-30.827572	35.199935	-0.004037	0.003786
	210.289000	3379.658189	-30.773236	35.208068	-0.004039	0.003791
	210.831000	3389.133860	-30.742891	35.216435	-0.004045	0.003797
	211.374000	3389.233689	-30.684349	35.237390	-0.004044	0.003797
	211.916000	3395.582469	-30.644330	35.253193	-0.004040	0.003797
	212.457000	3397.219982	-30.603242	35.278786	-0.004040	0.003796
	213.002000	3400.024844	-30.558084	35.294922	-0.004039	0.003796
	213.545000	3397.395486	-30.506040	35.318581	-0.004038	0.003793
	214.089000	3407.209287	-30.476507	35.341513	-0.004038	0.003792
	214.635000	3409.564922	-30.414674	35.368650	-0.004038	0.003791
	215.178000	3412.094451	-30.373274	35.389412	-0.004034	0.003790
	215.723000	3411.477767	-30.336855	35.413033	-0.004034	0.003790
	216.280000	3415.446762	-30.278935	35.438324	-0.004035	0.003790
	216.823000	3418.006884	-30.229886	35.460782	-0.004033	0.003790
	217.373000	3426.646893	-30.191201	35.484784	-0.004035	0.003790
	217.918000	3429.142609	-30.151549	35.506179	-0.004037	0.003789
	218.470000	3432.644663	-30.108126	35.525225	-0.004037	0.003790
	219.014000	3440.201048	-30.048023	35.547806	-0.004037	0.003790
	219.559000	3435.336816	-29.995921	35.572167	-0.004038	0.003789
	220.102000	3435.579947	-29.960211	35.598248	-0.004039	0.003786
	220.648000	3443.886658	-29.918898	35.625135	-0.004037	0.003785
	221.208000	3446.772028	-29.872593	35.643679	-0.004040	0.003788
	221.754000	3443.976826	-29.821960	35.675049	-0.004032	0.003785
	222.316000	3450.871443	-29.777298	35.695009	-0.004027	0.003783
	222.861000	3452.459041	-29.731409	35.718514	-0.004030	0.003777
	223.404000	3461.928272	-29.678853	35.742343	-0.004029	0.003773
	223.951000	3461.603024	-29.639520	35.770963	-0.004026	0.003771
	224.496000	3459.640264	-29.590156	35.797807	-0.004025	0.003766
	225.041000	3459.141121	-29.547201	35.819563	-0.004022	0.003763
	225.586000	3458.477743	-29.493905	35.844581	-0.004022	0.003759
	226.128000	3464.897370	-29.443378	35.870169	-0.004023	0.003755
	226.690000	3469.046700	-29.411532	35.891614	-0.004021	0.003748
	227.233000	3481.937477	-29.372097	35.919636	-0.004023	0.003748
	227.779000	3475.791574	-29.323393	35.941374	-0.004022	0.003747
	228.322000	3475.955809	-29.274975	35.965824	-0.004021	0.003744
	228.867000	3474.051014	-29.240599	35.989707	-0.004021	0.003742
	229.414000	3474.379482	-29.190574	36.015805	-0.004023	0.003740
	229.954000	3481.613839	-29.155995	36.046027	-0.004025	0.003737
	230.497000	3486.859674	-29.098235	36.063055	-0.004027	0.003734
	231.044000	3488.988279	-29.058490	36.090656	-0.004028	0.003731
	231.588000	3484.180402	-29.004512	36.112286	-0.004029	0.003730
	232.130000	3486.634255	-28.954916	36.145911	-0.004028	0.003728
	232.675000	3493.380740	-28.910199	36.163672	-0.004028	0.003728
	233.217000	3492.467791	-28.876543	36.186859	-0.004028	0.003734
	233.759000	3497.533290	-28.813003	36.205236	-0.004027	0.003735
	234.303000	3505.300604	-28.780005	36.234496	-0.004028	0.003735
	234.845000	3500.590945	-28.734544	36.257564	-0.004026	0.003731
	235.390000	3502.732431	-28.692059	36.288279	-0.004027	0.003728
	235.937000	3501.679400	-28.629739	36.307827	-0.004029	0.003726
	236.482000	3509.261547	-28.589218	36.338340	-0.004029	0.003723
	237.029000	3513.604094	-28.541996	36.357159	-0.004030	0.003719
	237.572000	3511.081005	-28.497781	36.387771	-0.004029	0.003717
	238.115000	3513.046986	-28.459424	36.411365	-0.004027	0.003718
	238.658000	3514.285183	-28.420658	36.437116	-0.004024	0.003716
	239.207000	3518.246126	-28.368772	36.460683	-0.004026	0.003710
	239.751000	3515.856679	-28.320336	36.479183	-0.004028	0.003713
	240.294000	3516.813102	-28.277090	36.501889	-0.004027	0.003715
	240.837000	3521.711147	-28.230206	36.526888	-0.004025	0.003717
	241.380000	3520.542186	-28.185218	36.556899	-0.004025	0.003716
	241.925000	3526.085897	-28.136225	36.583674	-0.004025	0.003715
	242.469000	3526.564108	-28.086825	36.610316	-0.004025	0.003715
	243.011000	3529.497782	-28.038089	36.635805	-0.004025	0.003714
	243.554000	3533.907955	-28.003365	36.661512	-0.004026	0.003714
	244.098000	3529.293295	-27.955662	36.687701	-0.004027	0.003712
	244.639000	3535.730633	-27.912777	36.711021	-0.004027	0.003713
	245.188000	3536.611379	-27.874002	36.739980	-0.004027	0.003713
	245.731000	3529.745744	-27.823994	36.757351	-0.004028	0.003713
	246.276000	3533.679315	-27.783975	36.785687	-0.004028	0.003710
	246.819000	3546.969408	-27.739287	36.811095	-0.004029	0.003707
	247.358000	3544.539707	-27.684925	36.830674	-0.004028	0.003704
	247.903000	3545.119358	-27.642868	36.856753	-0.004028	0.003703
	248.444000	3545.199864	-27.607760	36.888768	-0.004026	0.003703
	248.986000	3544.835973	-27.551453	36.914953	-0.004025	0.003702
	249.530000	3537.807713	-27.498656	36.941915	-0.004026	0.003698
	250.074000	3547.798630	-27.466853	36.960967	-0.004025	0.003698
	250.619000	3544.106580	-27.424686	36.991814	-0.004023	0.003698
	251.163000	3556.839564	-27.373477	37.018312	-0.004023	0.003696
	251.707000	3554.145800	-27.318583	37.043302	-0.004022	0.003695
	252.255000	3550.202568	-27.264502	37.064720	-0.004022	0.003692
	252.801000	3556.187458	-27.226528	37.091408	-0.004022	0.003689
	253.343000	3557.982763	-27.186271	37.115754	-0.004022	0.003688
	253.888000	3557.672006	-27.143457	37.138938	-0.004023	0.003686
	254.431000	3558.766901	-27.098424	37.166918	-0.004025	0.003684
	254.976000	3553.983176	-27.054348	37.195440	-0.004024	0.003684
	255.517000	3561.275499	-27.004881	37.222561	-0.004024	0.003682
	256.059000	3566.437607	-26.949837	37.248326	-0.004022	0.003682
	256.605000	3571.261585	-26.913434	37.275371	-0.004022	0.003680
	257.150000	3559.836034	-26.879647	37.299114	-0.004022	0.003678
	257.695000	3566.041512	-26.823424	37.327241	-0.004022	0.003675
	258.239000	3567.307082	-26.771335	37.347855	-0.004017	0.003666
	258.781000	3574.906941	-26.736253	37.377719	-0.004015	0.003667
	259.323000	3569.643395	-26.689385	37.399875	-0.004016	0.003667
	259.869000	3572.844352	-26.645164	37.425328	-0.004018	0.003665
	260.419000	3573.329005	-26.593494	37.446414	-0.004018	0.003666
	260.963000	3574.145345	-26.541377	37.473253	-0.004019	0.003665
	261.507000	3576.071072	-26.495584	37.501965	-0.004019	0.003664
	262.049000	3570.279400	-26.470311	37.527104	-0.004020	0.003663
	262.595000	3582.767643	-26.414455	37.553425	-0.004020	0.003663
	263.139000	3583.877030	-26.361024	37.579412	-0.004019	0.003664
	263.684000	3579.061102	-26.322023	37.607150	-0.004018	0.003665
	264.233000	3586.757569	-26.281035	37.638323	-0.004017	0.003666
	264.778000	3584.094398	-26.235571	37.663329	-0.004016	0.003667
	265.324000	3583.603306	-26.180529	37.685485	-0.004018	0.003667
	265.869000	3585.134549	-26.126077	37.716663	-0.004019	0.003668
	266.418000	3586.050718	-26.091598	37.744636	-0.004019	0.003669
	266.964000	3589.118034	-26.038366	37.772144	-0.004020	0.003670
	267.517000	3580.579464	-26.007909	37.796494	-0.004019	0.003671
	268.060000	3589.613957	-25.953118	37.817459	-0.004020	0.003669
	268.610000	3587.490183	-25.909464	37.841430	-0.004022	0.003670
	269.151000	3593.011352	-25.859546	37.872701	-0.004020	0.003672
	269.699000	3587.635096	-25.818616	37.898218	-0.004022	0.003674
	270.245000	3587.588402	-25.779354	37.930234	-0.004024	0.003674
	270.790000	3594.099806	-25.718008	37.955425	-0.004028	0.003672
	271.333000	3595.957908	-25.678189	37.981230	-0.004030	0.003671
	271.879000	3601.667463	-25.633372	38.002619	-0.004027	0.003670
	272.425000	3600.018680	-25.598914	38.033408	-0.004029	0.003664
	272.971000	3594.935469	-25.541261	38.058157	-0.004026	0.003667
	273.517000	3599.065477	-25.504866	38.082551	-0.004023	0.003668
	274.057000	3600.363250	-25.452481	38.112462	-0.004023	0.003668
	274.601000	3601.087813	-25.413042	38.134959	-0.004023	0.003668
	275.144000	3603.290484	-25.369034	38.162428	-0.004023	0.003669
	275.689000	3609.774516	-25.332989	38.188105	-0.004023	0.003668
	276.242000	3606.856943	-25.285454	38.219259	-0.004022	0.003668
	276.786000	3601.433993	-25.216147	38.242474	-0.004022	0.003668
	277.335000	3606.362630	-25.179219	38.279384	-0.004021	0.003668
	277.877000	3606.747454	-25.137684	38.296913	-0.004018	0.003669
	278.424000	3602.570751	-25.096490	38.326705	-0.004017	0.003670
	278.968000	3613.714528	-25.046865	38.360943	-0.004017	0.003671
	279.520000	3612.260572	-25.001552	38.380292	-0.004017	0.003671
	280.061000	3605.800692	-24.963711	38.411952	-0.004017	0.003671
	280.608000	3612.648616	-24.907359	38.429427	-0.004017	0.003671
	281.151000	3614.915693	-24.849980	38.459760	-0.004018	0.003672
	281.698000	3608.412338	-24.822288	38.485310	-0.004019	0.003673
	282.242000	3608.185309	-24.770908	38.509858	-0.004019	0.003674
	282.786000	3611.109322	-24.734197	38.543521	-0.004019	0.003675
	283.328000	3614.867388	-24.680985	38.564787	-0.004017	0.003675
	283.874000	3612.281504	-24.630342	38.594765	-0.004016	0.003676
	284.420000	3616.131348	-24.573037	38.622092	-0.004025	0.003689
	284.965000	3610.945088	-24.541333	38.655764	-0.004034	0.003703
	285.510000	3617.533780	-24.486756	38.678204	-0.004036	0.003709
	286.052000	3615.743304	-24.463441	38.704304	-0.004036	0.003712
	286.597000	3613.579277	-24.411819	38.733050	-0.004037	0.003712
	287.139000	3616.704558	-24.367312	38.761400	-0.004038	0.003712
	287.688000	3616.126517	-24.332732	38.791904	-0.004038	0.003710
	288.236000	3616.443715	-24.271807	38.818824	-0.004040	0.003714
	288.779000	3619.069853	-24.229998	38.846749	-0.004040	0.003715
	289.324000	3619.622131	-24.190852	38.872606	-0.004041	0.003716
	289.869000	3620.760500	-24.145649	38.902609	-0.004042	0.003715
	290.432000	3622.064713	-24.091120	38.927201	-0.004044	0.003715
	290.976000	3627.067417	-24.038745	38.956325	-0.004046	0.003715
	291.521000	3625.154571	-23.997326	38.985097	-0.004046	0.003715
	292.065000	3626.154468	-23.945971	39.012229	-0.004047	0.003716
	292.614000	3621.477012	-23.908168	39.041891	-0.004048	0.003717
	293.157000	3626.888691	-23.847430	39.070196	-0.004048	0.003718
	293.702000	3623.104863	-23.831690	39.099808	-0.004047	0.003719
	294.244000	3628.115618	-23.787755	39.130937	-0.004047	0.003714
	294.789000	3628.101126	-23.726724	39.159047	-0.004046	0.003711
	295.336000	3622.167761	-23.689034	39.187527	-0.004046	0.003710
	295.877000	3623.230454	-23.639464	39.217695	-0.004047	0.003710
	296.421000	3629.635589	-23.587736	39.245926	-0.004049	0.003710
	296.965000	3621.148543	-23.535619	39.272237	-0.004048	0.003710
	297.509000	3628.845011	-23.497420	39.297110	-0.004048	0.003709
	298.053000	3628.758063	-23.461069	39.324459	-0.004049	0.003706
	298.599000	3633.280946	-23.404885	39.357045	-0.004048	0.003706
	299.144000	3631.321406	-23.357669	39.382619	-0.004045	0.003701
	299.688000	3632.614348	-23.320455	39.408932	-0.004047	0.003701
	300.235000	3628.463408	-23.276475	39.438642	-0.004048	0.003699
	300.781000	3631.960631	-23.228596	39.464831	-0.004046	0.003699
	301.322000	3630.754637	-23.188416	39.494490	-0.004045	0.003698
	301.868000	3634.092456	-23.135771	39.525484	-0.004045	0.003696
	302.411000	3633.392045	-23.094100	39.554193	-0.004044	0.003693
	302.958000	3631.192595	-23.059096	39.577773	-0.004044	0.003690
	303.500000	3632.314862	-23.001172	39.609335	-0.004039	0.003678
	304.043000	3625.378380	-22.959415	39.636925	-0.004038	0.003678
	304.588000	3635.290400	-22.918369	39.669373	-0.004037	0.003678
	305.134000	3632.031477	-22.878601	39.697705	-0.004036	0.003679
	305.679000	3627.172076	-22.816972	39.726003	-0.004036	0.003680
	306.226000	3628.543915	-22.783455	39.756102	-0.004036	0.003679
	306.772000	3631.625722	-22.726633	39.783416	-0.004038	0.003676
	307.320000	3630.649978	-22.681906	39.812459	-0.004040	0.003672
	307.866000	3634.805748	-22.656517	39.845027	-0.004040	0.003674
	308.412000	3633.478993	-22.580225	39.870332	-0.004039	0.003674
	308.955000	3630.770738	-22.544647	39.898616	-0.004038	0.003675
	309.503000	3635.820136	-22.500884	39.930389	-0.004038	0.003675
	310.047000	3636.934353	-22.450135	39.956480	-0.004038	0.003676
	310.596000	3635.578615	-22.418418	39.984963	-0.004038	0.003674
	311.138000	3629.611438	-22.364234	40.018909	-0.004040	0.003670
	311.681000	3634.139150	-22.321014	40.042029	-0.004037	0.003663
	312.223000	3633.361453	-22.270916	40.074174	-0.003789	0.004068
	312.768000	3633.152135	-22.222673	40.102334	-0.003760	0.004101
	313.313000	3631.976733	-22.187394	40.132485	-0.003738	0.004132
	313.855000	3634.511092	-22.135989	40.165249	-0.003723	0.004146
	314.397000	3632.242406	-22.088699	40.190243	-0.003713	0.004158
	314.942000	3629.991430	-22.044101	40.224936	-0.003705	0.004170
	315.483000	3644.136508	-21.996579	40.257068	-0.003698	0.004179
	316.026000	3638.964739	-21.953601	40.287062	-0.003693	0.004185
	316.569000	3635.771832	-21.908082	40.316979	-0.003690	0.004192
	317.115000	3625.961251	-21.869236	40.348609	-0.003689	0.004194
	317.659000	3632.765701	-21.823839	40.371968	-0.003684	0.004201
	318.209000	3629.410170	-21.761723	40.406505	-0.003682	0.004205
	318.751000	3626.582765	-21.716372	40.438912	-0.003682	0.004206
	319.299000	3636.320890	-21.671665	40.464385	-0.003679	0.004211
	319.843000	3634.887865	-21.632792	40.500214	-0.003678	0.004214
	320.384000	3639.384985	-21.595556	40.524795	-0.003679	0.004214
	320.927000	3630.696672	-21.535121	40.557669	-0.003677	0.004217
	321.474000	3633.181117	-21.503601	40.586795	-0.003678	0.004221
	322.017000	3632.434012	-21.446811	40.624103	-0.003676	0.004225
	322.564000	3639.679641	-21.405910	40.651067	-0.003678	0.004221
	323.107000	3637.282143	-21.365212	40.679317	-0.003682	0.004219
	323.652000	3640.310816	-21.315191	40.708346	-0.003683	0.004222
	324.195000	3639.597524	-21.275324	40.741731	-0.003681	0.004225
	324.742000	3635.197012	-21.227841	40.771596	-0.003680	0.004228
	325.283000	3638.834318	-21.180071	40.801402	-0.003682	0.004227
	325.828000	3628.513322	-21.130269	40.829866	-0.003685	0.004226
	326.370000	3638.027638	-21.090447	40.858778	-0.003685	0.004228
	326.914000	3638.338395	-21.034826	40.894762	-0.003686	0.004226
	327.458000	3631.031581	-21.008024	40.921942	-0.003687	0.004222
	328.003000	3641.082073	-20.951044	40.957030	-0.003690	0.004221
	328.549000	3631.414794	-20.903622	40.983121	-0.003689	0.004222
	329.090000	3637.191975	-20.862937	41.012552	-0.003690	0.004225
	329.635000	3634.704309	-20.820332	41.047363	-0.003695	0.004222
	330.176000	3638.748980	-20.772859	41.073601	-0.003696	0.004223
	330.721000	3634.061864	-20.723814	41.107197	-0.003697	0.004222
	331.262000	3639.554050	-20.683521	41.140402	-0.003698	0.004222
	331.807000	3630.377864	-20.638096	41.171415	-0.003699	0.004224
	332.348000	3629.105853	-20.591701	41.202606	-0.003701	0.004226
	332.892000	3632.667483	-20.548337	41.234456	-0.003701	0.004224
	333.442000	3628.637303	-20.500126	41.263623	-0.003704	0.004221
	333.986000	3633.208489	-20.456172	41.298818	-0.003702	0.004226
	334.536000	3636.813592	-20.403188	41.332833	-0.003702	0.004228
	335.078000	3632.849428	-20.359747	41.364129	-0.003702	0.004230
	335.639000	3633.136033	-20.315864	41.392458	-0.003701	0.004229
	336.183000	3633.535348	-20.262758	41.429156	-0.003700	0.004227
	336.744000	3631.380981	-20.221976	41.463109	-0.003701	0.004234
	337.286000	3624.307637	-20.171972	41.489592	-0.003699	0.004234
	337.831000	3631.551656	-20.134037	41.525508	-0.003707	0.004225
	338.373000	3632.551552	-20.084547	41.557539	-0.003712	0.004218
	338.916000	3626.679373	-20.026263	41.585408	-0.003714	0.004223
	339.459000	3636.343431	-20.005454	41.618559	-0.003715	0.004223
	340.004000	3635.506159	-19.959281	41.649861	-0.003716	0.004223
	340.547000	3623.555702	-19.915965	41.681192	-0.003720	0.004223
	341.090000	3626.280058	-19.861297	41.712936	-0.003721	0.004223
	341.647000	3625.098216	-19.824589	41.744785	-0.003722	0.004223
	342.189000	3620.361185	-19.764550	41.778785	-0.003722	0.004223
	342.734000	3622.573517	-19.735207	41.806744	-0.003722	0.004222
	343.276000	3621.419047	-19.685521	41.836808	-0.003723	0.004220
	343.820000	3629.394069	-19.625231	41.870293	-0.003726	0.004219
	344.363000	3626.073960	-19.607703	41.900401	-0.003724	0.004221
	344.906000	3626.850048	-19.538483	41.931144	-0.003722	0.004222
	345.451000	3625.859812	-19.509281	41.964740	-0.003721	0.004224
	345.995000	3626.798523	-19.451989	41.989420	-0.003720	0.004226
	346.541000	3619.404762	-19.421718	42.022162	-0.003721	0.004225
	347.085000	3620.383727	-19.366909	42.053014	-0.003722	0.004226
	347.630000	3617.488696	-19.307929	42.080850	-0.003722	0.004224
	348.174000	3609.962903	-19.281243	42.115010	-0.003724	0.004223
	348.717000	3622.369029	-19.227100	42.146362	-0.003722	0.004230
	349.266000	3610.106205	-19.165943	42.174214	-0.003722	0.004232
	349.811000	3620.725076	-19.134558	42.203643	-0.003721	0.004232
	350.352000	3614.274857	-19.083407	42.235782	-0.003720	0.004233
	350.894000	3607.352866	-19.034076	42.264057	-0.003724	0.004234
	351.437000	3611.986848	-18.989774	42.294838	-0.003722	0.004237
	351.981000	3604.456225	-18.950622	42.328069	-0.003720	0.004237
	352.525000	3608.070989	-18.901806	42.357583	-0.003719	0.004238
	353.068000	3604.441734	-18.855041	42.383771	-0.003720	0.004237
	353.610000	3606.253141	-18.813315	42.415114	-0.003725	0.004230
	354.156000	3592.100013	-18.770273	42.442102	-0.003726	0.004231
	354.698000	3597.685588	-18.729485	42.473705	-0.003725	0.004232
	355.245000	3596.994838	-18.667723	42.502353	-0.003724	0.004236
	355.792000	3590.127592	-18.630116	42.532888	-0.003728	0.004230
	356.333000	3582.566376	-18.603980	42.560528	-0.003730	0.004228
	356.879000	3593.591002	-18.552195	42.598453	-0.003730	0.004229
	357.423000	3586.686723	-18.500248	42.626426	-0.003730	0.004228
	357.966000	3583.347294	-18.454408	42.650715	-0.003729	0.004231
	358.511000	3580.110913	-18.409163	42.682015	-0.003727	0.004234
	359.056000	3575.132361	-18.355319	42.707657	-0.003726	0.004238
	359.600000	3566.447268	-18.308197	42.739506	-0.003726	0.004238
	360.146000	3568.728835	-18.260643	42.771866	-0.003727	0.004239
	360.696000	3564.022397	-18.236906	42.798526	-0.003728	0.004240
	361.240000	3558.180811	-18.190454	42.830807	-0.003728	0.004239
	361.785000	3556.087629	-18.132343	42.857079	-0.003732	0.004235
	362.329000	3558.406230	-18.091407	42.889277	-0.003735	0.004232
	362.874000	3544.346490	-18.044088	42.913629	-0.003737	0.004231
	363.419000	3543.657351	-17.999484	42.939939	-0.003740	0.004229
	363.965000	3538.938031	-17.944726	42.970991	-0.003740	0.004231
	364.512000	3532.386373	-17.894725	43.001071	-0.003740	0.004231
	365.052000	3525.156846	-17.872199	43.030342	-0.003743	0.004229
	365.593000	3522.883329	-17.812276	43.060524	-0.003744	0.004228
	366.139000	3509.433832	-17.778759	43.089406	-0.003742	0.004231
	366.679000	3511.448117	-17.720176	43.122018	-0.003740	0.004235
	367.225000	3499.070973	-17.677030	43.151836	-0.003738	0.004238
	367.769000	3494.121404	-17.628394	43.180857	-0.003739	0.004235
	368.314000	3489.651656	-17.587371	43.211795	-0.003742	0.004233
	368.859000	3481.493079	-17.550421	43.239277	-0.003743	0.004234
	369.405000	3479.016684	-17.505968	43.268909	-0.003739	0.004237
	369.945000	3468.544336	-17.456202	43.303570	-0.003738	0.004240
	370.490000	3446.960414	-17.415379	43.336988	-0.003742	0.004237
	371.034000	3447.609300	-17.372797	43.367344	-0.003742	0.004237
	371.580000	3433.874809	-17.299052	43.399000	-0.003744	0.004237
	372.124000	3426.065632	-17.270775	43.424375	-0.003743	0.004239
	372.668000	3413.725522	-17.230437	43.459839	-0.003739	0.004242
	373.215000	3409.331451	-17.178726	43.492714	-0.003739	0.004241
	373.761000	3391.051536	-17.141052	43.525864	-0.003739	0.004243
	374.303000	3388.935813	-17.095179	43.559176	-0.003737	0.004244
	374.848000	3372.132396	-17.050227	43.593460	-0.003738	0.004245
	375.392000	3355.060086	-16.994403	43.625096	-0.003738	0.004245
	375.936000	3338.416073	-16.942267	43.657799	-0.003738	0.004246
	376.479000	3333.556672	-16.916247	43.688016	-0.003740	0.004244
	377.022000	3312.958157	-16.863093	43.724502	-0.003742	0.004244
	377.567000	3298.162584	-16.819139	43.761334	-0.003742	0.004245
	378.109000	3282.333302	-16.772216	43.796437	-0.003743	0.004243
	378.652000	3255.492276	-16.714084	43.831177	-0.003746	0.004242
	379.198000	3247.021331	-16.678712	43.868410	-0.003745	0.004243
	379.741000	3225.028436	-16.645888	43.902727	-0.003743	0.004245
	380.289000	3210.450232	-16.583685	43.945692	-0.003743	0.004246
	380.832000	3189.141646	-16.542652	43.975962	-0.003745	0.004243
	381.379000	3167.796026	-16.501796	44.009148	-0.003747	0.004243
	381.921000	3137.221087	-16.453659	44.054557	-0.003747	0.004243
	382.472000	3118.108731	-16.413995	44.091100	-0.003747	0.004244
	383.016000	3098.597061	-16.376124	44.130123	-0.003751	0.004240
	383.560000	3069.154051	-16.324075	44.170892	-0.003754	0.004235
	384.103000	3043.498088	-16.263070	44.212216	-0.003758	0.004231
	384.647000	3009.099069	-16.234268	44.251867	-0.003758	0.004232
	385.191000	2980.143932	-16.185583	44.298727	-0.003759	0.004232
	385.737000	2943.835287	-16.136287	44.335881	-0.003759	0.004232
	386.278000	2908.423491	-16.083355	44.384126	-0.003756	0.004236
	386.821000	2873.473805	-16.043904	44.423753	-0.003757	0.004237
	387.365000	2824.786410	-15.999425	44.470397	-0.003758	0.004237
	387.908000	2786.846696	-15.953526	44.515992	-0.003757	0.004239
	388.452000	2738.882255	-15.909093	44.558249	-0.003762	0.004232
	388.994000	2692.645493	-15.854712	44.601743	-0.003761	0.004236
	389.537000	2630.590724	-15.826425	44.651331	-0.003761	0.004236
	390.079000	2570.572781	-15.761069	44.700461	-0.003761	0.004236
	390.628000	2509.382658	-15.724026	44.748227	-0.003758	0.004241
	391.170000	2294.902449	-15.682085	44.793853	-0.003759	0.004242
	391.718000	2001.712207	-15.631121	44.841544	-0.003759	0.004246
	392.261000	1742.289815	-15.577564	44.893278	-0.003760	0.004247
	392.808000	1549.515917	-15.544801	44.944348	-0.003758	0.004252
	393.350000	1384.874371	-15.503089	44.999239	-0.003757	0.004252
	393.896000	1226.578387	-15.452353	45.059893	-0.003757	0.004252
	394.444000	1082.760774	-15.408058	45.112473	-0.003759	0.004252
	394.988000	954.814302	-15.359345	45.164663	-0.003759	0.004254
	395.531000	832.450184	-15.319739	45.221869	-0.003759	0.004255
	396.072000	729.328836	-15.262173	45.277985	-0.003763	0.004252
	396.615000	657.724348	-15.221195	45.327073	-0.003763	0.004253
	397.156000	566.324813	-15.187665	45.389168	-0.003765	0.004251
	397.697000	488.572815	-15.134762	45.441109	-0.003763	0.004254
	398.238000	407.226988	-15.092969	45.495325	-0.003762	0.004257
	398.781000	332.840181	-15.053234	45.541414	-0.003760	0.004258
	399.324000	270.716192	-15.020197	45.589659	-0.003762	0.004258
	399.865000	199.308143	-14.949374	45.648096	-0.003761	0.004260
	400.409000	131.757986	-14.891434	45.695347	-0.003759	0.004263
	400.953000	86.756214	-14.866686	45.744792	-0.003756	0.004267
	401.498000	53.009313	-14.823911	45.796970	-0.003756	0.004268
	402.040000	39.184660	-14.762513	45.849753	-0.003755	0.004270
	402.581000	25.108826	-14.731167	45.901407	-0.003755	0.004271
	403.122000	19.352580	-14.693693	45.958329	-0.003756	0.004270
	403.667000	22.344218	-14.631644	46.013511	-0.003759	0.004270
	404.216000	29.005362	-14.592099	46.078613	-0.003761	0.004266
	404.763000	30.180764	-14.548986	46.132001	-0.003765	0.004261
	405.312000	24.732054	-14.501342	46.189391	-0.003766	0.004259
	405.854000	25.611190	-14.450391	46.245648	-0.003766	0.004260
	406.403000	22.683957	-14.418626	46.297433	-0.003766	0.004261
	406.945000	20.408831	-14.364589	46.354824	-0.003764	0.004264
	407.494000	22.170323	-14.323209	46.404149	-0.003761	0.004268
	408.037000	21.719484	-14.280472	46.451119	-0.003759	0.004270
	408.579000	19.379952	-14.241021	46.495277	-0.003757	0.004272
	409.124000	25.406702	-14.187245	46.538210	-0.003757	0.004272
	409.671000	18.943604	-14.141623	46.587166	-0.003759	0.004273
	410.212000	23.790122	-14.127122	46.631519	-0.003757	0.004275
	410.757000	20.664843	-14.113906	46.667387	-0.003757	0.004274
