LabVIEW Measurement	
Writer_Version	2
Reader_Version	2
Separator	Tab
Decimal_Separator	.
Multi_Headings	No
X_Columns	No
Time_Pref	Absolute
Operator	mechlab
Description	Data file
Date	2024/02/16
Time	13:34:21.5
***End_of_Header***	

Channels	6						
Samples	1	1	1	1	1	1	
Date	2024/02/16	2024/02/16	2024/02/16	2024/02/16	2024/02/16	2024/02/16	
Time	13:34:21.5	13:34:21.6090002059936523437	13:34:21.7170000076293945313	13:34:21.8270001411437988281	13:34:21.9330000877380371094	13:34:22.0409998893737792969	
X_Dimension	Time	Time	Time	Time	Time	Time	
X0	0.0000000000000000E+0	0.0000000000000000E+0	0.0000000000000000E+0	0.0000000000000000E+0	0.0000000000000000E+0	0.0000000000000000E+0	
Delta_X	1.000000	1.000000	1.000000	1.000000	1.000000	1.000000	
***End_of_Header***							
X_Value	Untitled	Untitled 1	Untitled 2	Untitled 3	Untitled 4	Untitled 5	Comment
0.000000	351.102377	-36.954573	29.117969	-3.176968E-7	2.762662E-5
0.546000	447.482071	-36.930566	29.121906	-8.843827E-6	5.349000E-5
1.086000	580.200990	-36.943492	29.117264	-1.588882E-5	7.577092E-5
1.628000	711.269518	-36.934800	29.118880	-2.207716E-5	9.673927E-5
2.177000	823.061464	-36.935283	29.121814	-2.759756E-5	0.000117
2.721000	933.724702	-36.914451	29.122159	-3.329417E-5	0.000135
3.268000	1029.743728	-36.931255	29.123922	-3.784743E-5	0.000152
3.812000	1118.713567	-36.907199	29.124031	-4.257941E-5	0.000168
4.357000	1207.058672	-36.909176	29.123563	-4.717107E-5	0.000182
4.904000	1291.747152	-36.907589	29.125645	-5.182600E-5	0.000198
5.447000	1371.474795	-36.912606	29.121304	-5.580933E-5	0.000212
5.996000	1445.549240	-36.891310	29.127200	-6.046914E-5	0.000224
6.540000	1520.713750	-36.895699	29.126872	-6.437793E-5	0.000236
7.084000	1579.392047	-36.881217	29.126638	-6.782370E-5	0.000248
7.626000	1645.151735	-36.881527	29.122679	-7.064385E-5	0.000258
8.174000	1699.677485	-36.876896	29.124518	-7.411439E-5	0.000269
8.718000	1764.165165	-36.852067	29.124423	-7.733419E-5	0.000279
9.269000	1820.862992	-36.862404	29.122540	-8.124284E-5	0.000289
9.812000	1870.970521	-36.858221	29.126463	-8.421682E-5	0.000298
10.355000	1930.629395	-36.852788	29.125184	-8.682463E-5	0.000308
10.903000	1982.844597	-36.851201	29.122024	-8.969183E-5	0.000317
11.444000	2036.896968	-36.852785	29.124737	-9.247214E-5	0.000326
11.988000	2082.707037	-36.839794	29.127189	-9.504266E-5	0.000336
12.530000	2125.530298	-36.839865	29.126413	-9.816178E-5	0.000345
13.073000	2169.469386	-36.830018	29.125447	-0.000101	0.000354
13.622000	2237.053368	-36.836107	29.126598	-0.000104	0.000363
14.166000	2272.466770	-36.836983	29.125922	-0.000107	0.000370
14.709000	2314.610553	-36.811649	29.123176	-0.000110	0.000379
15.254000	2355.496819	-36.818808	29.124217	-0.000112	0.000388
15.796000	2405.945702	-36.811266	29.123674	-0.000115	0.000396
16.339000	2456.378483	-36.806644	29.121714	-0.000118	0.000404
16.884000	2490.758177	-36.807456	29.120317	-0.000121	0.000412
17.429000	2533.592712	-36.793087	29.124386	-0.000123	0.000418
17.974000	2577.964931	-36.796088	29.121304	-0.000126	0.000426
18.517000	2627.747218	-36.797315	29.122381	-0.000128	0.000434
19.061000	2661.412011	-36.783703	29.125236	-0.000130	0.000441
19.604000	2704.811706	-36.784508	29.125758	-0.000132	0.000449
20.150000	2742.284479	-36.783011	29.121383	-0.000135	0.000456
20.692000	2787.936761	-36.767501	29.127204	-0.000138	0.000462
21.236000	2811.805467	-36.764661	29.128010	-0.000140	0.000471
21.780000	2863.120609	-36.766059	29.120951	-0.000143	0.000476
22.326000	2891.125764	-36.768526	29.120621	-0.000145	0.000483
22.871000	2936.203226	-36.756124	29.125283	-0.000147	0.000489
23.414000	2969.436504	-36.740518	29.126580	-0.000149	0.000496
23.957000	3003.395955	-36.746714	29.124014	-0.000151	0.000503
24.501000	3031.695766	-36.734735	29.120334	-0.000153	0.000509
25.046000	3071.931541	-36.734123	29.117354	-0.000156	0.000515
25.594000	3102.836559	-36.733666	29.121788	-0.000157	0.000522
26.138000	3130.785360	-36.730526	29.117426	-0.000158	0.000528
26.680000	3166.676980	-36.718575	29.123199	-0.000161	0.000533
27.226000	3201.079220	-36.716859	29.121645	-0.000163	0.000540
27.769000	3216.655710	-36.705945	29.122592	-0.000165	0.000546
28.312000	3264.908372	-36.713014	29.124221	-0.000166	0.000552
28.857000	3281.951699	-36.706435	29.122383	-0.000168	0.000556
29.401000	3323.287202	-36.685274	29.121948	-0.000170	0.000563
29.946000	3346.936932	-36.701430	29.121318	-0.000171	0.000567
30.493000	3375.838938	-36.688034	29.121587	-0.000173	0.000573
31.038000	3409.719495	-36.677928	29.121128	-0.000176	0.000578
31.579000	3435.939009	-36.681902	29.117491	-0.000177	0.000585
32.123000	3471.260641	-36.679648	29.122315	-0.000179	0.000590
32.667000	3498.790809	-36.677014	29.124268	-0.000181	0.000595
33.215000	3528.459242	-36.669414	29.122441	-0.000183	0.000601
33.759000	3557.327436	-36.662310	29.120309	-0.000185	0.000607
34.301000	3582.196044	-36.652056	29.118673	-0.000186	0.000611
34.844000	3609.029022	-36.649876	29.115712	-0.000187	0.000618
35.388000	3638.980840	-36.653380	29.124508	-0.000189	0.000622
35.930000	3667.700903	-36.645564	29.118415	-0.000191	0.000626
36.474000	3693.031621	-36.638318	29.119628	-0.000193	0.000632
37.021000	3720.048155	-36.645744	29.122663	-0.000195	0.000636
37.563000	3742.562740	-36.643345	29.122484	-0.000197	0.000641
38.109000	3770.717643	-36.625772	29.123803	-0.000198	0.000645
38.657000	3797.817906	-36.615770	29.116288	-0.000200	0.000649
39.203000	3820.522487	-36.627643	29.119507	-0.000201	0.000655
39.744000	3850.446935	-36.604531	29.117228	-0.000203	0.000660
40.287000	3870.708935	-36.613400	29.119492	-0.000205	0.000665
40.838000	3896.162025	-36.613032	29.119244	-0.000206	0.000669
41.380000	3918.913301	-36.595089	29.123333	-0.000207	0.000675
41.926000	3948.349877	-36.598145	29.117480	-0.000210	0.000679
42.469000	3974.530752	-36.577145	29.116681	-0.000211	0.000684
43.015000	3994.646229	-36.566460	29.119149	-0.000212	0.000689
43.559000	4013.087162	-36.586252	29.115064	-0.000213	0.000692
44.102000	4036.551730	-36.580678	29.115897	-0.000214	0.000697
44.653000	4057.757272	-36.576073	29.121350	-0.000216	0.000701
45.196000	4084.558052	-36.563687	29.122130	-0.000217	0.000705
45.736000	4106.885862	-36.562786	29.120711	-0.000219	0.000710
46.279000	4130.129842	-36.555160	29.120475	-0.000220	0.000714
46.824000	4152.699174	-36.553824	29.118678	-0.000221	0.000719
47.367000	4172.257544	-36.546774	29.121362	-0.000223	0.000723
47.917000	4192.954283	-36.547579	29.121624	-0.000225	0.000727
48.459000	4222.576029	-36.542124	29.123391	-0.000225	0.000733
49.010000	4240.124944	-36.533697	29.120803	-0.000227	0.000737
49.552000	4267.703422	-36.522184	29.121671	-0.000228	0.000741
50.098000	4289.142437	-36.516117	29.121892	-0.000231	0.000746
50.639000	4316.959216	-36.522512	29.119462	-0.000232	0.000751
51.186000	4343.552289	-36.532164	29.121463	-0.000233	0.000754
51.727000	4357.537966	-36.522139	29.123352	-0.000234	0.000760
52.273000	4379.348923	-36.508118	29.117921	-0.000235	0.000765
52.818000	4406.415378	-36.492361	29.117571	-0.000237	0.000769
53.361000	4435.478407	-36.505120	29.119744	-0.000238	0.000775
53.904000	4455.460246	-36.494013	29.118090	-0.000239	0.000780
54.451000	4482.492888	-36.502489	29.119863	-0.000240	0.000784
54.998000	4508.486991	-36.488586	29.113488	-0.000242	0.000788
55.545000	4539.284141	-36.489739	29.119483	-0.000244	0.000793
56.090000	4565.617984	-36.483228	29.116140	-0.000245	0.000798
56.630000	4586.408114	-36.481209	29.118304	-0.000245	0.000803
57.174000	4608.523390	-36.470153	29.114169	-0.000248	0.000807
57.720000	4618.248637	-36.458753	29.120481	-0.000249	0.000811
58.265000	4650.047296	-36.469947	29.117594	-0.000251	0.000815
58.809000	4672.177063	-36.441908	29.120747	-0.000252	0.000819
59.355000	4697.580246	-36.456357	29.118565	-0.000253	0.000823
59.901000	4704.903164	-36.433190	29.114992	-0.000254	0.000828
60.445000	4733.909841	-36.441054	29.118496	-0.000256	0.000831
60.991000	4751.197917	-36.440153	29.117042	-0.000257	0.000836
61.533000	4768.774209	-36.437628	29.118497	-0.000258	0.000838
62.079000	4792.736317	-36.420016	29.116848	-0.000259	0.000844
62.626000	4816.097843	-36.423558	29.116599	-0.000260	0.000848
63.171000	4831.801541	-36.419556	29.119428	-0.000262	0.000852
63.712000	4858.784273	-36.416603	29.121724	-0.000263	0.000856
64.256000	4869.837887	-36.411862	29.116592	-0.000265	0.000860
64.802000	4895.819112	-36.401644	29.122135	-0.000266	0.000864
65.343000	4921.542715	-36.398321	29.120140	-0.000267	0.000869
65.889000	4939.489339	-36.398785	29.121903	-0.000270	0.000872
66.434000	4963.200267	-36.388509	29.119649	-0.000272	0.000877
66.978000	4984.062857	-36.394592	29.120536	-0.000272	0.000881
67.519000	5018.854771	-36.380915	29.117885	-0.000273	0.000884
68.063000	5022.670804	-36.373106	29.116982	-0.000273	0.000883
68.620000	5015.797115	-36.377740	29.118462	-0.000274	0.000884
69.165000	5025.520753	-36.387414	29.119170	-0.000274	0.000887
69.708000	5040.340485	-36.366778	29.118283	-0.000276	0.000890
70.253000	5052.175018	-36.373128	29.116781	-0.000277	0.000893
70.796000	5066.382898	-36.367908	29.116873	-0.000277	0.000895
71.337000	5052.967207	-36.360109	29.118489	-0.000272	0.000877
71.880000	4949.779747	-36.376793	29.117056	-0.000266	0.000861
72.423000	4863.701642	-36.371164	29.117700	-0.000262	0.000847
72.969000	4783.344369	-36.385359	29.117209	-0.000258	0.000833
73.511000	4704.956298	-36.368414	29.116415	-0.000256	0.000823
74.057000	4652.108275	-36.389256	29.112915	-0.000253	0.000815
74.599000	4606.526816	-36.379276	29.111512	-0.000250	0.000805
75.146000	4553.946078	-36.380310	29.116863	-0.000247	0.000795
75.691000	4502.572946	-36.380941	29.116729	-0.000245	0.000786
76.235000	4450.311017	-36.384541	29.117364	-0.000242	0.000776
76.780000	4397.070125	-36.382670	29.116873	-0.000239	0.000766
77.323000	4350.112000	-36.389542	29.114398	-0.000236	0.000759
77.869000	4284.957683	-36.384992	29.114161	-0.000234	0.000749
78.412000	4237.721005	-36.395757	29.116011	-0.000232	0.000739
78.957000	4190.849830	-36.391867	29.111746	-0.000229	0.000731
79.501000	4130.854405	-36.396356	29.114755	-0.000226	0.000721
80.047000	4084.768980	-36.381488	29.112335	-0.000224	0.000713
80.593000	4027.127581	-36.393922	29.111966	-0.000220	0.000703
81.137000	3975.403448	-36.410494	29.110504	-0.000217	0.000695
81.683000	3926.521212	-36.401879	29.110590	-0.000214	0.000685
82.228000	3869.312943	-36.400536	29.111483	-0.000212	0.000676
82.777000	3821.715601	-36.401998	29.113564	-0.000209	0.000668
83.320000	3772.797944	-36.406768	29.112689	-0.000207	0.000658
83.864000	3720.996528	-36.401786	29.112754	-0.000204	0.000649
84.405000	3667.834544	-36.421130	29.104007	-0.000201	0.000641
84.947000	3610.842039	-36.403354	29.110430	-0.000198	0.000632
85.490000	3558.108354	-36.419620	29.110731	-0.000195	0.000622
86.035000	3506.896252	-36.411640	29.111800	-0.000192	0.000613
86.578000	3447.759043	-36.416197	29.111469	-0.000190	0.000604
87.123000	3411.637171	-36.423114	29.107818	-0.000187	0.000595
87.669000	3356.000408	-36.427201	29.107426	-0.000184	0.000586
88.215000	3307.857234	-36.417324	29.106162	-0.000181	0.000576
88.759000	3250.958123	-36.432231	29.109611	-0.000178	0.000568
89.302000	3200.969731	-36.435918	29.106791	-0.000176	0.000560
89.848000	3156.748859	-36.433751	29.110189	-0.000173	0.000551
90.392000	3105.287191	-36.417041	29.108516	-0.000170	0.000543
90.942000	3047.497675	-36.443161	29.105513	-0.000167	0.000535
91.483000	3002.061150	-36.438337	29.107221	-0.000164	0.000526
92.031000	2942.882085	-36.441937	29.107314	-0.000161	0.000517
92.574000	2896.255668	-36.437341	29.110259	-0.000159	0.000509
93.119000	2858.022908	-36.441721	29.105633	-0.000156	0.000500
93.662000	2806.208622	-36.448110	29.108318	-0.000153	0.000491
94.207000	2760.775320	-36.430795	29.106704	-0.000150	0.000483
94.755000	2698.870292	-36.444993	29.107548	-0.000147	0.000473
95.298000	2651.483892	-36.437715	29.104803	-0.000145	0.000464
95.849000	2590.858926	-36.442117	29.108005	-0.000143	0.000456
96.394000	2545.815279	-36.450748	29.106635	-0.000141	0.000447
96.941000	2503.212604	-36.458470	29.106970	-0.000139	0.000438
97.485000	2450.391985	-36.451746	29.099634	-0.000136	0.000430
98.029000	2401.248925	-36.452049	29.102200	-0.000131	0.000420
98.570000	2347.924334	-36.443157	29.099859	-0.000129	0.000412
99.115000	2295.345238	-36.473290	29.108405	-0.000126	0.000410
99.656000	2301.714949	-36.466402	29.108479	-0.000128	0.000418
100.203000	2361.502638	-36.460666	29.103332	-0.000131	0.000429
100.746000	2417.216676	-36.450139	29.103870	-0.000134	0.000439
101.289000	2479.483982	-36.454808	29.100626	-0.000137	0.000449
101.840000	2535.445982	-36.449121	29.103171	-0.000142	0.000464
102.385000	2644.135216	-36.444668	29.101012	-0.000150	0.000487
102.931000	2774.050919	-36.449173	29.106382	-0.000156	0.000511
103.474000	2910.484470	-36.442938	29.103785	-0.000164	0.000534
104.018000	3046.476846	-36.420593	29.100647	-0.000171	0.000556
104.566000	3175.872486	-36.431071	29.102310	-0.000180	0.000578
105.110000	3297.639289	-36.419340	29.103737	-0.000186	0.000602
105.656000	3429.463027	-36.422856	29.104373	-0.000192	0.000625
106.199000	3557.981153	-36.410890	29.110509	-0.000200	0.000647
106.746000	3690.611581	-36.402179	29.110150	-0.000207	0.000670
107.289000	3820.527317	-36.412123	29.107683	-0.000214	0.000693
107.838000	3945.541794	-36.405892	29.108111	-0.000221	0.000715
108.384000	4082.297415	-36.386071	29.112599	-0.000227	0.000737
108.929000	4206.571237	-36.384718	29.110129	-0.000235	0.000760
109.477000	4331.746742	-36.374175	29.112114	-0.000241	0.000781
110.019000	4455.808036	-36.384812	29.112903	-0.000248	0.000802
110.565000	4570.358237	-36.369563	29.108590	-0.000255	0.000823
111.109000	4693.240918	-36.377527	29.110554	-0.000262	0.000843
111.656000	4801.176672	-36.372745	29.112638	-0.000267	0.000860
112.197000	4890.003285	-36.365519	29.112541	-0.000271	0.000876
112.741000	4968.611949	-36.361400	29.116790	-0.000275	0.000886
113.285000	5035.915820	-36.354821	29.116995	-0.000278	0.000894
113.829000	5078.475053	-36.364839	29.113021	-0.000281	0.000902
114.372000	5115.265153	-36.342020	29.115333	-0.000283	0.000909
114.917000	5153.969711	-36.351507	29.117935	-0.000285	0.000915
115.460000	5190.096434	-36.343192	29.118125	-0.000287	0.000921
116.001000	5217.798903	-36.334826	29.114831	-0.000288	0.000927
116.544000	5250.620009	-36.325381	29.115985	-0.000291	0.000932
117.087000	5287.390790	-36.309975	29.118554	-0.000294	0.000939
117.635000	5316.436117	-36.321761	29.117383	-0.000295	0.000945
118.179000	5348.258937	-36.325030	29.121985	-0.000297	0.000949
118.731000	5380.733864	-36.300736	29.115373	-0.000299	0.000955
119.272000	5417.548121	-36.294620	29.114011	-0.000301	0.000961
119.816000	5445.775498	-36.293850	29.116713	-0.000303	0.000967
120.360000	5483.998629	-36.293519	29.117246	-0.000304	0.000973
120.905000	5507.627444	-36.303241	29.118880	-0.000306	0.000978
121.450000	5531.951841	-36.292421	29.115580	-0.000308	0.000984
121.996000	5576.768501	-36.271028	29.114847	-0.000309	0.000989
122.543000	5596.964497	-36.276219	29.115871	-0.000312	0.000994
123.090000	5634.448576	-36.261924	29.116201	-0.000314	0.001001
123.636000	5656.464032	-36.271460	29.116364	-0.000316	0.001006
124.180000	5693.713031	-36.258585	29.114649	-0.000318	0.001012
124.725000	5719.406050	-36.264868	29.117858	-0.000319	0.001017
125.268000	5754.428225	-36.254360	29.116654	-0.000321	0.001024
125.813000	5778.617373	-36.253294	29.115892	-0.000323	0.001029
126.354000	5810.005461	-36.240625	29.115175	-0.000325	0.001035
126.897000	5839.654597	-36.238648	29.115235	-0.000326	0.001041
127.442000	5871.638438	-36.241791	29.116705	-0.000328	0.001046
127.985000	5907.726530	-36.219403	29.113084	-0.000330	0.001052
128.528000	5938.382005	-36.234487	29.116443	-0.000332	0.001057
129.073000	5973.293085	-36.214357	29.119310	-0.000334	0.001064
129.616000	6002.499434	-36.210261	29.120048	-0.000336	0.001070
130.161000	6033.803799	-36.212859	29.116142	-0.000338	0.001075
130.706000	6065.309430	-36.220649	29.116935	-0.000340	0.001082
131.252000	6093.457919	-36.206280	29.115886	-0.000341	0.001087
131.797000	6127.625115	-36.212525	29.115111	-0.000343	0.001092
132.341000	6155.854111	-36.203672	29.113823	-0.000344	0.001098
132.886000	6194.223777	-36.200439	29.116584	-0.000346	0.001104
133.430000	6215.459931	-36.178621	29.122858	-0.000348	0.001109
133.973000	6254.005104	-36.183442	29.122082	-0.000350	0.001115
134.512000	6278.688570	-36.175658	29.115053	-0.000352	0.001120
135.057000	6310.841482	-36.172267	29.120088	-0.000353	0.001126
135.599000	6341.696622	-36.168545	29.117885	-0.000355	0.001132
136.141000	6380.412472	-36.153947	29.116871	-0.000357	0.001137
136.686000	6405.157125	-36.150008	29.116470	-0.000359	0.001143
137.229000	6436.619289	-36.160874	29.115771	-0.000361	0.001148
137.781000	6477.466969	-36.145632	29.117051	-0.000363	0.001154
138.324000	6505.979354	-36.144160	29.117753	-0.000365	0.001159
138.870000	6535.697737	-36.139787	29.122577	-0.000368	0.001166
139.413000	6573.927328	-36.126017	29.119682	-0.000369	0.001172
139.958000	6606.688879	-36.159869	29.114752	-0.000371	0.001178
140.501000	6630.069745	-36.144408	29.118794	-0.000372	0.001185
141.048000	6673.912292	-36.125222	29.119840	-0.000378	0.001204
141.597000	6792.573295	-36.124004	29.117330	-0.000383	0.001219
142.141000	6876.513207	-36.112073	29.116359	-0.000387	0.001231
142.685000	6944.966778	-36.091991	29.115592	-0.000391	0.001245
143.228000	7015.154474	-36.079702	29.118098	-0.000396	0.001258
143.773000	7089.080923	-36.077377	29.121326	-0.000399	0.001271
144.317000	7159.270235	-36.071748	29.118315	-0.000404	0.001283
144.863000	7226.767392	-36.072557	29.120064	-0.000407	0.001297
145.404000	7293.680070	-36.060790	29.116151	-0.000411	0.001310
145.947000	7370.435550	-36.049361	29.119502	-0.000416	0.001321
146.491000	7440.537926	-36.036930	29.118916	-0.000420	0.001336
147.034000	7513.239073	-36.020716	29.121608	-0.000424	0.001348
147.577000	7589.848040	-36.011335	29.120446	-0.000428	0.001361
148.123000	7665.878970	-36.001471	29.121658	-0.000432	0.001374
148.667000	7739.874682	-35.999971	29.120256	-0.000437	0.001387
149.209000	7811.732128	-35.999195	29.119019	-0.000442	0.001401
149.753000	7893.184418	-35.972743	29.119450	-0.000445	0.001414
150.296000	7964.354340	-35.968763	29.123363	-0.000450	0.001428
150.842000	8042.320678	-35.962225	29.120251	-0.000455	0.001442
151.386000	8120.338545	-35.943251	29.120436	-0.000459	0.001456
151.932000	8202.637785	-35.938205	29.124376	-0.000464	0.001470
152.472000	8276.535304	-35.930206	29.118670	-0.000469	0.001483
153.014000	8353.883362	-35.933201	29.125162	-0.000474	0.001498
153.561000	8431.556674	-35.911238	29.124634	-0.000478	0.001511
154.103000	8508.606864	-35.900276	29.124162	-0.000482	0.001524
154.653000	8581.934406	-35.900640	29.125104	-0.000486	0.001538
155.196000	8672.579045	-35.894766	29.123534	-0.000490	0.001553
155.743000	8753.195716	-35.876826	29.121632	-0.000495	0.001568
156.286000	8828.925604	-35.870916	29.123028	-0.000500	0.001582
156.832000	8912.591896	-35.852635	29.121603	-0.000505	0.001596
157.375000	8996.866826	-35.849073	29.123746	-0.000509	0.001610
157.919000	9068.389420	-35.839064	29.124394	-0.000514	0.001626
158.461000	9153.355113	-35.837058	29.124221	-0.000519	0.001641
159.010000	9235.849237	-35.835625	29.123207	-0.000523	0.001655
159.557000	9324.009466	-35.813231	29.127753	-0.000528	0.001670
160.103000	9410.276170	-35.809408	29.130741	-0.000532	0.001685
160.649000	9488.392328	-35.809160	29.127398	-0.000537	0.001700
161.195000	9577.900263	-35.783842	29.128271	-0.000542	0.001715
161.738000	9669.878166	-35.783295	29.128592	-0.000547	0.001730
162.280000	9748.308317	-35.772059	29.129698	-0.000552	0.001746
162.822000	9828.879966	-35.763448	29.125791	-0.000557	0.001762
163.364000	9928.952085	-35.750770	29.128872	-0.000562	0.001779
163.913000	10007.024800	-35.739998	29.127138	-0.000567	0.001794
164.455000	10105.412721	-35.735766	29.134232	-0.000571	0.001809
165.000000	10182.002502	-35.730977	29.132232	-0.000576	0.001824
165.546000	10279.227911	-35.706129	29.127530	-0.000580	0.001841
166.091000	10365.359426	-35.701547	29.130965	-0.000586	0.001857
166.640000	10456.815699	-35.707134	29.128612	-0.000591	0.001874
167.183000	10547.927407	-35.685732	29.130876	-0.000595	0.001891
167.729000	10635.474258	-35.689468	29.131002	-0.000600	0.001906
168.275000	10738.486568	-35.657693	29.134866	-0.000606	0.001922
168.819000	10819.903607	-35.659106	29.135973	-0.000611	0.001940
169.362000	10909.418077	-35.651159	29.133361	-0.000616	0.001956
169.905000	11008.021830	-35.635051	29.136655	-0.000622	0.001972
170.449000	11092.932905	-35.637247	29.136390	-0.000627	0.001988
170.993000	11188.696375	-35.617407	29.135676	-0.000634	0.002004
171.536000	11276.085480	-35.614531	29.139940	-0.000639	0.002021
172.079000	11372.047013	-35.617149	29.134103	-0.000644	0.002038
172.624000	11477.186393	-35.603643	29.136604	-0.000650	0.002056
173.167000	11571.326867	-35.585313	29.135060	-0.000654	0.002073
173.710000	11663.416021	-35.582914	29.137188	-0.000660	0.002090
174.253000	11762.639746	-35.566326	29.139349	-0.000666	0.002107
174.798000	11860.433670	-35.566542	29.140389	-0.000670	0.002125
175.339000	11959.058439	-35.552340	29.138211	-0.000677	0.002141
175.879000	12058.026177	-35.544025	29.141726	-0.000683	0.002159
176.422000	12157.613832	-35.532616	29.141412	-0.000689	0.002177
176.967000	12260.719670	-35.522475	29.143507	-0.000694	0.002194
177.513000	12351.978046	-35.526990	29.143037	-0.000700	0.002211
178.058000	12447.545188	-35.511059	29.140586	-0.000706	0.002231
178.606000	12561.363374	-35.498329	29.138417	-0.000712	0.002250
179.148000	12668.747418	-35.487067	29.142863	-0.000717	0.002267
179.698000	12760.506587	-35.484417	29.143020	-0.000722	0.002285
180.241000	12860.664302	-35.474366	29.145389	-0.000729	0.002303
180.785000	12973.703222	-35.450298	29.143156	-0.000734	0.002322
181.327000	13064.824799	-35.441793	29.143423	-0.000740	0.002340
181.871000	13173.455153	-35.442640	29.145848	-0.000746	0.002358
182.415000	13271.865897	-35.430267	29.142993	-0.000752	0.002376
182.960000	13379.623573	-35.415927	29.147085	-0.000758	0.002396
183.506000	13488.377943	-35.415602	29.145619	-0.000764	0.002413
184.050000	13592.284163	-35.411554	29.146458	-0.000770	0.002432
184.601000	13698.027576	-35.392178	29.149902	-0.000776	0.002449
185.143000	13798.014712	-35.386626	29.151120	-0.000781	0.002469
185.687000	13903.173663	-35.379947	29.147239	-0.000787	0.002487
186.233000	14014.720096	-35.368605	29.148877	-0.000793	0.002507
186.782000	14110.743073	-35.358641	29.146851	-0.000799	0.002525
187.322000	14218.541099	-35.353531	29.155073	-0.000805	0.002545
187.870000	14335.684457	-35.347670	29.151545	-0.000810	0.002564
188.411000	14433.668633	-35.330824	29.150123	-0.000816	0.002584
188.956000	14552.315902	-35.316565	29.147569	-0.000822	0.002600
189.496000	14651.876441	-35.320174	29.152664	-0.000829	0.002620
190.038000	14761.133330	-35.298953	29.154823	-0.000835	0.002638
190.584000	14870.105235	-35.302849	29.152071	-0.000841	0.002658
191.127000	14979.093255	-35.294521	29.154297	-0.000847	0.002678
191.673000	15090.659145	-35.286149	29.158560	-0.000853	0.002697
192.216000	15194.939105	-35.267010	29.154549	-0.000859	0.002717
192.759000	15309.636771	-35.268930	29.157353	-0.000866	0.002737
193.302000	15418.312478	-35.247299	29.157448	-0.000872	0.002757
193.845000	15531.261547	-35.248281	29.158464	-0.000878	0.002775
194.390000	15640.154654	-35.240452	29.155094	-0.000883	0.002796
194.935000	15757.386764	-35.220390	29.163861	-0.000889	0.002816
195.475000	15868.105815	-35.220718	29.159242	-0.000896	0.002835
196.022000	15984.573135	-35.203744	29.165188	-0.000902	0.002855
196.571000	16091.889960	-35.200710	29.161077	-0.000907	0.002876
197.114000	16204.649124	-35.180931	29.164798	-0.000914	0.002896
197.658000	16315.084851	-35.177675	29.165727	-0.000921	0.002916
198.200000	16431.948333	-35.171228	29.163512	-0.000927	0.002937
198.746000	16542.395362	-35.160827	29.162092	-0.000933	0.002957
199.291000	16669.027697	-35.141843	29.163913	-0.000940	0.002978
199.837000	16780.988306	-35.151562	29.164769	-0.000946	0.002998
200.380000	16884.524592	-35.143469	29.167201	-0.000953	0.003017
200.924000	17009.714282	-35.117732	29.169888	-0.000959	0.003039
201.466000	17122.104854	-35.119227	29.165235	-0.000966	0.003059
202.015000	17245.597478	-35.099116	29.167695	-0.000972	0.003080
202.560000	17355.978607	-35.089275	29.168748	-0.000978	0.003101
203.102000	17469.452867	-35.082686	29.168988	-0.000985	0.003121
203.649000	17589.699470	-35.073154	29.167415	-0.000992	0.003141
204.192000	17710.609476	-35.079308	29.168523	-0.000999	0.003162
204.737000	17828.977063	-35.054994	29.172537	-0.001006	0.003182
205.282000	17944.227402	-35.052994	29.172039	-0.001012	0.003205
205.825000	18054.832451	-35.032101	29.175855	-0.001018	0.003227
206.366000	18171.509425	-35.032752	29.174195	-0.001024	0.003245
206.908000	18287.561679	-35.019568	29.172861	-0.001031	0.003267
207.451000	18416.401842	-35.021332	29.174852	-0.001037	0.003290
207.999000	18535.878946	-35.013446	29.175939	-0.001044	0.003310
208.542000	18658.465291	-34.997312	29.178137	-0.001050	0.003332
209.085000	18778.753959	-34.986939	29.175844	-0.001057	0.003353
209.628000	18883.639846	-34.975517	29.179316	-0.001062	0.003376
210.169000	19013.584690	-34.974438	29.179807	-0.001069	0.003398
210.721000	19131.873599	-34.978257	29.180209	-0.001075	0.003420
211.262000	19248.681180	-34.950157	29.177194	-0.001081	0.003441
211.806000	19375.449245	-34.941146	29.178590	-0.001087	0.003462
212.349000	19494.664061	-34.928800	29.184724	-0.001093	0.003484
212.899000	19610.476625	-34.929425	29.180556	-0.001099	0.003506
213.440000	19732.787828	-34.934004	29.179074	-0.001106	0.003528
213.983000	19863.046821	-34.907452	29.183087	-0.001113	0.003550
214.540000	19971.636255	-34.902223	29.184377	-0.001119	0.003571
215.084000	20083.508831	-34.890478	29.189201	-0.001126	0.003595
215.636000	20229.600639	-34.878215	29.181676	-0.001133	0.003617
216.179000	20355.765084	-34.868277	29.178219	-0.001139	0.003639
216.730000	20474.872200	-34.858787	29.184856	-0.001147	0.003661
217.274000	20592.449682	-34.851770	29.184639	-0.001154	0.003684
217.823000	20723.048594	-34.848343	29.187471	-0.001160	0.003705
218.364000	20844.630605	-34.823660	29.184138	-0.001167	0.003727
218.915000	20977.775242	-34.832979	29.189450	-0.001174	0.003750
219.460000	21102.898060	-34.813261	29.186272	-0.001180	0.003771
220.005000	21214.139653	-34.803520	29.183705	-0.001187	0.003793
220.551000	21335.990659	-34.797231	29.188898	-0.001194	0.003815
221.094000	21468.251423	-34.784845	29.191717	-0.001201	0.003836
221.641000	21586.753331	-34.780221	29.189563	-0.001208	0.003860
222.182000	21720.022115	-34.780878	29.190940	-0.001216	0.003880
222.726000	21827.795520	-34.755878	29.193167	-0.001223	0.003902
223.273000	21956.180716	-34.756954	29.191721	-0.001229	0.003924
223.819000	22086.870094	-34.750362	29.193635	-0.001236	0.003947
224.365000	22209.856447	-34.733668	29.194807	-0.001244	0.003971
224.911000	22339.421983	-34.728886	29.194693	-0.001251	0.003993
225.455000	22464.514492	-34.721798	29.197896	-0.001257	0.004015
226.001000	22590.687455	-34.701925	29.193434	-0.001265	0.004036
226.547000	22717.567311	-34.685299	29.198434	-0.001272	0.004059
227.088000	22838.038713	-34.699871	29.199913	-0.001279	0.004081
227.633000	22965.569133	-34.678572	29.198010	-0.001286	0.004104
228.176000	23087.924488	-34.672540	29.196171	-0.001294	0.004127
228.721000	23215.458186	-34.663269	29.203348	-0.001299	0.004149
229.265000	23342.866318	-34.651341	29.199773	-0.001306	0.004171
229.806000	23469.469395	-34.648703	29.199529	-0.001313	0.004194
230.349000	23599.959460	-34.635287	29.199475	-0.001320	0.004217
230.893000	23718.152655	-34.621105	29.202660	-0.001327	0.004239
231.438000	23851.764908	-34.610774	29.208304	-0.001334	0.004262
231.985000	23976.398857	-34.605409	29.203414	-0.001341	0.004284
232.529000	24104.367509	-34.601526	29.206349	-0.001348	0.004306
233.072000	24233.806282	-34.581489	29.207188	-0.001354	0.004329
233.615000	24348.714860	-34.575315	29.203672	-0.001361	0.004351
234.159000	24486.140166	-34.567345	29.209734	-0.001368	0.004374
234.703000	24610.893418	-34.567371	29.203878	-0.001376	0.004397
235.245000	24727.518525	-34.553166	29.208014	-0.001383	0.004420
235.788000	24862.409511	-34.556309	29.211418	-0.001389	0.004443
236.330000	24994.349078	-34.539451	29.209855	-0.001397	0.004465
236.872000	25123.366204	-34.528962	29.210489	-0.001404	0.004487
237.415000	25243.516108	-34.515118	29.207515	-0.001412	0.004510
237.959000	25375.568484	-34.501979	29.211769	-0.001419	0.004532
238.506000	25501.197888	-34.492991	29.203786	-0.001425	0.004555
239.050000	25633.340501	-34.482335	29.214688	-0.001432	0.004578
239.600000	25751.406952	-34.469573	29.216474	-0.001439	0.004602
240.143000	25880.952411	-34.476445	29.211713	-0.001446	0.004625
240.690000	26018.619654	-34.446377	29.213410	-0.001453	0.004647
241.234000	26141.193096	-34.453864	29.217914	-0.001460	0.004671
241.784000	26274.590210	-34.446355	29.217036	-0.001468	0.004695
242.329000	26402.725286	-34.421552	29.214846	-0.001474	0.004718
242.879000	26535.465517	-34.416667	29.217737	-0.001482	0.004741
243.421000	26665.239826	-34.409949	29.216603	-0.001489	0.004763
243.962000	26781.467695	-34.418158	29.217477	-0.001495	0.004785
244.504000	26908.982983	-34.390283	29.220401	-0.001502	0.004810
245.046000	27054.141095	-34.389803	29.223551	-0.001509	0.004833
245.592000	27173.307648	-34.399039	29.221260	-0.001516	0.004856
246.135000	27303.516881	-34.375331	29.221070	-0.001524	0.004879
246.679000	27432.040284	-34.364459	29.222068	-0.001531	0.004902
247.222000	27567.519728	-34.358063	29.225607	-0.001538	0.004925
247.768000	27699.588834	-34.356891	29.226076	-0.001545	0.004947
248.312000	27821.270663	-34.332887	29.229781	-0.001552	0.004971
248.858000	27965.971763	-34.327792	29.226915	-0.001559	0.004995
249.400000	28082.011562	-34.308918	29.228142	-0.001566	0.005017
249.946000	28205.287576	-34.303421	29.222762	-0.001573	0.005040
250.488000	28332.241296	-34.293741	29.225147	-0.001580	0.005064
251.036000	28464.156046	-34.273717	29.230087	-0.001587	0.005087
251.579000	28596.384818	-34.291261	29.225454	-0.001594	0.005110
252.121000	28726.006734	-34.267064	29.232207	-0.001601	0.005133
252.667000	28857.440148	-34.272757	29.235500	-0.001608	0.005157
253.210000	28986.619337	-34.255883	29.234558	-0.001616	0.005179
253.755000	29110.662050	-34.246347	29.235747	-0.001623	0.005203
254.300000	29247.536419	-34.232832	29.232343	-0.001629	0.005228
254.848000	29374.723913	-34.223238	29.234811	-0.001636	0.005251
255.389000	29503.102984	-34.222965	29.234095	-0.001643	0.005275
255.932000	29634.642904	-34.213127	29.233603	-0.001649	0.005298
256.472000	29775.011559	-34.192571	29.236784	-0.001657	0.005322
257.015000	29890.180711	-34.192806	29.230848	-0.001664	0.005344
257.559000	30010.987189	-34.185786	29.239344	-0.001671	0.005368
258.102000	30142.807437	-34.174695	29.239163	-0.001677	0.005391
258.647000	30273.978817	-34.162516	29.239745	-0.001684	0.005414
259.192000	30408.438260	-34.142057	29.242086	-0.001691	0.005438
259.736000	30537.700028	-34.143935	29.241938	-0.001698	0.005460
260.276000	30659.514672	-34.128358	29.245094	-0.001705	0.005485
260.821000	30788.364307	-34.120855	29.244711	-0.001712	0.005508
261.364000	30920.101067	-34.109677	29.244873	-0.001719	0.005531
261.908000	31049.989359	-34.104303	29.242709	-0.001726	0.005556
262.455000	31178.993695	-34.097141	29.246611	-0.001733	0.005578
262.995000	31308.371635	-34.076373	29.245706	-0.001740	0.005603
263.537000	31437.252064	-34.088977	29.245126	-0.001748	0.005625
264.080000	31565.977955	-34.069726	29.250465	-0.001755	0.005648
264.628000	31702.766165	-34.067581	29.245665	-0.001763	0.005672
265.171000	31826.307290	-34.043152	29.251238	-0.001769	0.005694
265.715000	31953.822431	-34.041980	29.246145	-0.001777	0.005718
266.258000	32080.575988	-34.032477	29.255159	-0.001784	0.005741
266.803000	32207.582384	-34.024091	29.252090	-0.001791	0.005765
267.345000	32347.483336	-34.018690	29.257347	-0.001799	0.005790
267.890000	32476.517068	-34.002090	29.255301	-0.001807	0.005812
268.431000	32610.759852	-33.991646	29.255029	-0.001814	0.005836
268.973000	32728.681639	-33.990110	29.259582	-0.001821	0.005858
269.517000	32856.686572	-33.987808	29.258209	-0.001828	0.005882
270.061000	32990.729822	-33.975693	29.257671	-0.001836	0.005906
270.606000	33119.775034	-33.944288	29.257766	-0.001843	0.005929
271.147000	33247.725346	-33.938498	29.260455	-0.001850	0.005952
271.693000	33375.709516	-33.942334	29.258700	-0.001856	0.005975
272.238000	33501.234940	-33.926854	29.256613	-0.001863	0.005999
272.787000	33640.511593	-33.924954	29.263025	-0.001871	0.006023
273.329000	33765.694128	-33.916181	29.268617	-0.001878	0.006049
273.881000	33903.780929	-33.912082	29.262919	-0.001886	0.006071
274.422000	34033.447991	-33.895868	29.267034	-0.001893	0.006095
274.966000	34162.342194	-33.883257	29.267767	-0.001900	0.006120
275.510000	34294.221773	-33.875812	29.268846	-0.001907	0.006144
276.057000	34413.466059	-33.862856	29.269126	-0.001914	0.006167
276.602000	34546.437450	-33.877048	29.268168	-0.001921	0.006191
277.146000	34681.255806	-33.849666	29.266847	-0.001928	0.006215
277.690000	34816.407523	-33.821652	29.268839	-0.001936	0.006239
278.231000	34935.046535	-33.842832	29.274935	-0.001943	0.006264
278.773000	35059.490416	-33.828943	29.273610	-0.001950	0.006287
279.319000	35198.616285	-33.823063	29.271077	-0.001958	0.006312
279.865000	35337.217275	-33.806517	29.276135	-0.001965	0.006335
280.409000	35466.057184	-33.795883	29.276185	-0.001972	0.006360
280.952000	35589.262984	-33.787887	29.278122	-0.001979	0.006383
281.494000	35719.998207	-33.781598	29.277119	-0.001986	0.006405
282.041000	35843.010870	-33.767512	29.278761	-0.001995	0.006431
282.587000	35987.283302	-33.747727	29.278106	-0.002001	0.006455
283.129000	36107.402489	-33.756409	29.281796	-0.002008	0.006481
283.678000	36243.163401	-33.745315	29.282468	-0.002015	0.006503
284.221000	36372.288643	-33.739515	29.283415	-0.002023	0.006527
284.765000	36510.191248	-33.727703	29.283690	-0.002030	0.006551
285.307000	36629.350919	-33.717469	29.282967	-0.002037	0.006575
285.849000	36761.493862	-33.712307	29.280537	-0.002044	0.006600
286.389000	36903.863380	-33.696102	29.284785	-0.002051	0.006625
286.936000	37019.179581	-33.686200	29.284262	-0.002059	0.006647
287.482000	37149.562692	-33.687977	29.290160	-0.002066	0.006672
288.024000	37289.798820	-33.663831	29.285959	-0.002074	0.006697
288.564000	37416.407664	-33.644583	29.290999	-0.002081	0.006720
289.107000	37535.717398	-33.649195	29.292928	-0.002089	0.006743
289.650000	37663.633836	-33.643910	29.291301	-0.002095	0.006767
290.194000	37794.142787	-33.642126	29.290271	-0.002104	0.006791
290.739000	37927.743430	-33.629870	29.295718	-0.002111	0.006817
291.286000	38059.334559	-33.614728	29.292556	-0.002119	0.006844
291.832000	38190.214016	-33.599876	29.293342	-0.002126	0.006867
292.378000	38314.481916	-33.592666	29.295121	-0.002133	0.006892
292.920000	38448.543290	-33.590737	29.297969	-0.002141	0.006918
293.462000	38571.106054	-33.576651	29.288704	-0.002148	0.006942
294.006000	38708.425028	-33.572271	29.300054	-0.002157	0.006967
294.556000	38831.113485	-33.551890	29.296393	-0.002164	0.006991
295.101000	38960.394282	-33.547932	29.297183	-0.002172	0.007016
295.647000	39094.855252	-33.547159	29.304718	-0.002179	0.007042
296.190000	39222.308536	-33.531444	29.297264	-0.002188	0.007068
296.739000	39352.335025	-33.527161	29.300851	-0.002195	0.007094
297.281000	39480.015451	-33.511047	29.303634	-0.002202	0.007118
297.821000	39598.561056	-33.512164	29.303693	-0.002210	0.007143
298.366000	39731.746980	-33.493293	29.299984	-0.002218	0.007169
298.911000	39866.939314	-33.480071	29.306386	-0.002226	0.007196
299.452000	39991.595916	-33.475350	29.299141	-0.002234	0.007222
299.998000	40113.755083	-33.463724	29.304759	-0.002242	0.007247
300.544000	40241.690228	-33.468535	29.305180	-0.002250	0.007274
301.089000	40371.156767	-33.450093	29.308925	-0.002258	0.007299
301.635000	40497.256335	-33.438815	29.306775	-0.002266	0.007326
302.177000	40627.558689	-33.440741	29.309167	-0.002274	0.007352
302.721000	40749.106207	-33.425264	29.308271	-0.002283	0.007379
303.267000	40873.893583	-33.420978	29.313936	-0.002290	0.007406
303.809000	40997.615025	-33.399669	29.314844	-0.002300	0.007433
304.353000	41129.315277	-33.403810	29.311875	-0.002309	0.007462
304.900000	41249.555470	-33.382772	29.315330	-0.002316	0.007490
305.443000	41373.457406	-33.383941	29.320642	-0.002323	0.007518
305.990000	41505.346215	-33.371849	29.314651	-0.002333	0.007546
306.535000	41617.466079	-33.352565	29.313965	-0.002341	0.007575
307.078000	41736.469791	-33.354514	29.318388	-0.002349	0.007604
307.622000	41856.526649	-33.337050	29.316950	-0.002358	0.007634
308.165000	41984.560729	-33.339298	29.321882	-0.002367	0.007663
308.709000	42108.140909	-33.322298	29.320987	-0.002376	0.007694
309.253000	42228.355722	-33.317673	29.319080	-0.002386	0.007726
309.797000	42354.876320	-33.309455	29.326635	-0.002395	0.007756
310.340000	42478.284354	-33.296017	29.325070	-0.002404	0.007787
310.884000	42579.472572	-33.277825	29.327476	-0.002413	0.007818
311.432000	42705.439390	-33.281219	29.328862	-0.002424	0.007851
311.973000	42829.377340	-33.265565	29.329693	-0.002433	0.007885
312.517000	42949.571502	-33.255740	29.329539	-0.002443	0.007918
313.061000	43052.089949	-33.259131	29.335210	-0.002454	0.007952
313.607000	43160.993090	-33.238383	29.333757	-0.002464	0.007986
314.150000	43279.430595	-33.227366	29.335226	-0.002475	0.008022
314.696000	43390.285451	-33.231752	29.334012	-0.002485	0.008057
315.237000	43507.431623	-33.210022	29.335997	-0.002497	0.008095
315.782000	43613.848693	-33.207342	29.336234	-0.002508	0.008132
316.324000	43722.087004	-33.200216	29.339866	-0.002520	0.008170
316.868000	43820.636429	-33.186307	29.339617	-0.002533	0.008210
317.414000	43930.249978	-33.191382	29.339200	-0.002546	0.008251
317.958000	44035.986063	-33.159788	29.343481	-0.002558	0.008292
318.502000	44130.195940	-33.164660	29.341644	-0.002572	0.008333
319.044000	44223.839034	-33.139361	29.342958	-0.002585	0.008376
319.588000	44320.354869	-33.153792	29.349521	-0.002600	0.008421
320.132000	44411.175237	-33.130538	29.349711	-0.002614	0.008468
320.677000	44509.380296	-33.114855	29.350251	-0.002631	0.008516
321.218000	44602.153975	-33.130287	29.349077	-0.002647	0.008568
321.766000	44678.422479	-33.113712	29.353566	-0.002663	0.008621
322.311000	44759.243223	-33.098982	29.354276	-0.002681	0.008674
322.855000	44841.635603	-33.083634	29.354854	-0.002699	0.008732
323.398000	44914.434052	-33.081038	29.361435	-0.002719	0.008792
323.940000	44979.748007	-33.064879	29.359128	-0.002740	0.008855
324.486000	45041.847889	-33.056438	29.359158	-0.002762	0.008920
325.028000	45105.045980	-33.051592	29.364386	-0.002786	0.008989
325.580000	45160.661346	-33.046562	29.368101	-0.002811	0.009062
326.121000	45215.423280	-33.037110	29.363572	-0.002838	0.009140
326.665000	45260.863395	-33.030042	29.367893	-0.002865	0.009219
327.209000	45306.284187	-33.023775	29.371441	-0.002895	0.009304
327.754000	45341.045023	-33.010897	29.378228	-0.002926	0.009393
328.298000	45376.862199	-33.000659	29.377242	-0.002959	0.009487
328.844000	45400.715088	-32.985717	29.378938	-0.002995	0.009587
329.389000	45447.040877	-32.977058	29.381437	-0.003033	0.009692
329.932000	45462.464020	-32.969435	29.383599	-0.003071	0.009804
330.476000	45498.395540	-32.958441	29.386680	-0.003112	0.009919
331.020000	45514.019972	-32.948725	29.390794	-0.003157	0.010040
331.566000	45533.410820	-32.950223	29.396081	-0.003202	0.010167
332.110000	45547.280060	-32.925781	29.394998	-0.003250	0.010296
332.655000	45570.519454	-32.917472	29.400638	-0.003299	0.010432
333.197000	45578.833269	-32.917105	29.405401	-0.003351	0.010572
333.741000	45584.691428	-32.903612	29.411720	-0.003405	0.010717
334.287000	45597.750704	-32.899944	29.414460	-0.003460	0.010867
334.831000	45611.784195	-32.901400	29.423431	-0.003517	0.011019
335.375000	45608.306016	-32.871628	29.425873	-0.003576	0.011175
335.918000	45624.440907	-32.862463	29.430206	-0.003637	0.011336
336.463000	45630.329660	-32.865310	29.436827	-0.003699	0.011501
337.005000	45635.374631	-32.856367	29.438843	-0.003762	0.011668
337.554000	45646.908988	-32.854712	29.442062	-0.003827	0.011835
338.096000	45642.736781	-32.824914	29.450551	-0.003892	0.012005
338.638000	45653.060213	-32.820431	29.454221	-0.003957	0.012176
339.181000	45664.684746	-32.800266	29.463958	-0.004024	0.012350
339.723000	45660.731535	-32.803235	29.464697	-0.004090	0.012526
340.269000	45662.338585	-32.790875	29.473759	-0.004157	0.012703
340.814000	45668.576768	-32.771882	29.480129	-0.004225	0.012905
341.357000	45856.200541	-32.775073	29.482993	-0.004334	0.013219
341.900000	46129.658346	-32.741795	29.488862	-0.004469	0.013598
342.445000	46278.265522	-32.724978	29.497028	-0.004625	0.014022
342.986000	46321.599570	-32.699860	29.503446	-0.004792	0.014466
343.535000	46342.417175	-32.679855	29.511866	-0.004963	0.014923
344.080000	46352.748685	-32.646841	29.521385	-0.005135	0.015378
344.624000	46369.009222	-32.635334	29.532834	-0.005307	0.015838
345.171000	46374.844852	-32.625525	29.545916	-0.005478	0.016291
345.715000	46394.342038	-32.581813	29.554528	-0.005651	0.016700
346.260000	46387.604655	-32.573169	29.570800	-0.005818	0.017145
346.804000	46410.900477	-32.545926	29.582664	-0.005987	0.017576
347.348000	46430.365461	-32.515394	29.599376	-0.006154	0.017990
347.895000	46450.150892	-32.495135	29.613860	-0.006323	0.018431
348.439000	46461.551627	-32.473279	29.628313	-0.006491	0.018873
348.985000	46480.063334	-32.455467	29.641005	-0.006657	0.019316
349.528000	46494.794118	-32.424932	29.649141	-0.001858	0.004847
350.069000	46502.062893	-32.415832	29.662385	-0.001729	0.004728
350.618000	46524.989970	-32.384546	29.682485	-0.001654	0.004657
351.159000	46545.000845	-32.361019	29.691761	-0.001600	0.004616
351.698000	46560.253362	-32.345390	29.705197	-0.001560	0.004585
352.241000	46584.420358	-32.315699	29.723266	-0.001529	0.004562
352.785000	46586.336582	-32.306982	29.734881	-0.001506	0.004546
353.330000	46612.608209	-32.269233	29.747017	-0.001490	0.004531
353.871000	46621.430903	-32.248218	29.759426	-0.001474	0.004523
354.418000	46643.974745	-32.230619	29.771867	-0.001461	0.004516
354.963000	46649.839368	-32.201050	29.783594	-0.001451	0.004511
355.507000	46676.621454	-32.163044	29.798954	-0.001445	0.004505
356.054000	46676.864607	-32.159076	29.809165	-0.001442	0.004499
356.601000	46708.892975	-32.139023	29.824161	-0.001437	0.004494
357.141000	46717.599732	-32.111554	29.836845	-0.001437	0.004485
357.684000	46734.848997	-32.088555	29.852443	-0.001431	0.004481
358.227000	46747.554072	-32.055849	29.861179	-0.001430	0.004472
358.773000	46767.961088	-32.043048	29.873092	-0.001429	0.004467
359.321000	46782.099304	-32.023971	29.889949	-0.001425	0.004465
359.865000	46799.433923	-31.997752	29.901275	-0.001424	0.004462
360.410000	46810.704241	-31.985772	29.914942	-0.001420	0.004462
360.952000	46834.830999	-31.954812	29.930675	-0.001419	0.004458
361.497000	46831.446201	-31.923936	29.943164	-0.001420	0.004454
362.046000	46861.189605	-31.897970	29.954617	-0.001420	0.004452
362.589000	46871.799713	-31.880651	29.970285	-0.001423	0.004450
363.131000	46892.978064	-31.861941	29.984479	-0.001422	0.004450
363.674000	46902.924737	-31.837812	29.993911	-0.001423	0.004448
364.218000	46924.383277	-31.828608	30.008541	-0.001423	0.004449
364.763000	46932.925795	-31.808330	30.018906	-0.001417	0.004452
365.307000	46946.257272	-31.779576	30.035385	-0.001414	0.004453
365.845000	46944.444102	-31.742603	30.049910	-0.001410	0.004455
366.394000	46965.930019	-31.725156	30.066541	-0.001413	0.004454
366.935000	46974.810692	-31.696537	30.079242	-0.001414	0.004455
367.479000	46991.921494	-31.684905	30.095775	-0.001407	0.004457
368.027000	47008.431658	-31.665135	30.109478	-0.001408	0.004458
368.572000	47021.880691	-31.624940	30.123759	-0.001406	0.004459
369.112000	47024.458743	-31.619526	30.134251	-0.001401	0.004463
369.656000	47043.606546	-31.583716	30.146591	-0.001397	0.004468
370.202000	47052.442137	-31.567222	30.162078	-0.001397	0.004470
370.748000	47069.549720	-31.540287	30.177246	-0.001392	0.004474
371.290000	47072.250154	-31.522994	30.189265	-0.001388	0.004477
371.829000	47074.464287	-31.494562	30.199586	-0.001387	0.004481
372.365000	47096.157939	-31.464288	30.218086	-0.001384	0.004482
372.908000	47107.645661	-31.450289	30.231159	-0.001382	0.004486
373.453000	47123.513330	-31.432523	30.245119	-0.001381	0.004488
374.000000	47130.524478	-31.397595	30.261935	-0.001388	0.004488
374.545000	47148.701292	-31.385159	30.273649	-0.001394	0.004486
375.090000	47139.733655	-31.368519	30.288527	-0.001393	0.004487
375.634000	47158.411262	-31.326030	30.302344	-0.001396	0.004489
376.180000	47171.668680	-31.329895	30.311168	-0.001393	0.004492
376.727000	47173.475413	-31.299817	30.324666	-0.001392	0.004496
377.270000	47189.534712	-31.276135	30.339754	-0.001387	0.004500
377.813000	47200.663342	-31.266864	30.352824	-0.001391	0.004501
378.356000	47208.909577	-31.215764	30.363369	-0.001389	0.004504
378.904000	47219.461726	-31.201933	30.377281	-0.001396	0.004502
379.449000	47227.638717	-31.185248	30.392111	-0.001401	0.004502
379.996000	47235.519420	-31.155151	30.406958	-0.001410	0.004500
380.539000	47223.743458	-31.141497	30.416509	-0.001409	0.004502
381.081000	47253.032805	-31.116446	30.434493	-0.001413	0.004502
381.626000	47258.610806	-31.098570	30.443537	-0.001417	0.004502
382.170000	47264.230679	-31.070241	30.456725	-0.001422	0.004502
382.719000	47279.019475	-31.052617	30.475258	-0.001417	0.004501
383.262000	47286.640920	-31.031746	30.487924	-0.001418	0.004503
383.807000	47279.992083	-31.005033	30.502095	-0.001418	0.004504
384.353000	47300.254218	-30.960796	30.515468	-0.001423	0.004502
384.897000	47301.751774	-30.958542	30.529124	-0.001428	0.004502
385.442000	47323.567827	-30.924970	30.543909	-0.001429	0.004505
385.986000	47325.245740	-30.903458	30.554678	-0.001426	0.004509
386.529000	47317.352153	-30.888841	30.576879	-0.001423	0.004512
387.070000	47331.395394	-30.871313	30.582697	-0.001422	0.004514
387.616000	47343.160088	-30.847898	30.601087	-0.001420	0.004516
388.160000	47341.106985	-30.817196	30.611943	-0.001420	0.004518
388.713000	47357.800742	-30.796380	30.629724	-0.001425	0.004518
389.256000	47360.544658	-30.771539	30.641975	-0.001430	0.004518
389.807000	47380.381682	-30.745783	30.656030	-0.001435	0.004517
390.350000	47382.344613	-30.718661	30.669266	-0.001435	0.004521
390.900000	47385.077256	-30.703561	30.682824	-0.001435	0.004522
391.445000	47389.779270	-30.680198	30.697625	-0.001437	0.004521
391.984000	47403.608346	-30.652352	30.709049	-0.001439	0.004521
392.529000	47390.882310	-30.634312	30.724122	-0.001443	0.004521
393.070000	47404.912673	-30.603451	30.733267	-0.001441	0.004525
393.613000	47410.104213	-30.582349	30.750161	-0.001430	0.004534
394.155000	47421.575842	-30.565249	30.763202	-0.001429	0.004535
394.699000	47436.169800	-30.551849	30.778075	-0.001434	0.004534
395.243000	47438.590051	-30.525320	30.792094	-0.001435	0.004538
395.787000	47424.463075	-30.498228	30.807622	-0.001433	0.004546
396.334000	47437.153684	-30.469187	30.823879	-0.001422	0.004554
396.876000	47435.625528	-30.449952	30.835115	-0.001415	0.004560
397.420000	47452.504477	-30.425356	30.850497	-0.001412	0.004565
397.961000	47456.427115	-30.406497	30.861192	-0.001407	0.004571
398.507000	47455.652575	-30.365055	30.877136	-0.001404	0.004577
399.053000	47460.145253	-30.374620	30.891224	-0.001405	0.004579
399.603000	47476.553996	-30.346761	30.900996	-0.001405	0.004583
400.144000	47457.646099	-30.319768	30.918061	-0.001404	0.004588
400.688000	47474.583015	-30.287539	30.927010	-0.001404	0.004591
401.230000	47477.199721	-30.264646	30.945911	-0.001398	0.004597
401.769000	47479.484710	-30.259085	30.960480	-0.001399	0.004601
402.316000	47483.349378	-30.237283	30.977284	-0.001405	0.004601
402.854000	47489.080363	-30.207302	30.986364	-0.001405	0.004602
403.401000	47488.091652	-30.185974	31.003062	-0.001411	0.004602
403.945000	47497.299230	-30.161622	31.020424	-0.001411	0.004606
404.490000	47499.413527	-30.143804	31.031493	-0.001413	0.004609
405.031000	47509.299035	-30.107753	31.048611	-0.001412	0.004612
405.577000	47513.451947	-30.082654	31.059053	-0.001410	0.004616
406.119000	47507.745115	-30.082129	31.078116	-0.001406	0.004621
406.667000	47514.234542	-30.040081	31.093825	-0.001410	0.004618
407.210000	47521.591912	-30.023912	31.104153	-0.001419	0.004617
407.752000	47513.506697	-29.990427	31.115201	-0.001428	0.004613
408.299000	47506.828868	-29.978393	31.133837	-0.001435	0.004613
408.844000	47530.612697	-29.949156	31.148458	-0.001436	0.004614
409.389000	47525.868814	-29.928340	31.160626	-0.001441	0.004615
409.931000	47522.738430	-29.895200	31.173361	-0.001440	0.004617
410.476000	47530.361494	-29.878625	31.189196	-0.001446	0.004616
411.017000	47540.891111	-29.858189	31.201677	-0.001448	0.004619
411.560000	47531.081291	-29.836445	31.218347	-0.001447	0.004622
412.103000	47538.353311	-29.810003	31.229073	-0.001449	0.004626
412.645000	47540.467611	-29.808603	31.248878	-0.001447	0.004631
413.187000	47537.963626	-29.766297	31.258716	-0.001445	0.004634
413.733000	47537.788106	-29.746441	31.274097	-0.001444	0.004637
414.280000	47543.193814	-29.706496	31.292796	-0.001442	0.004639
414.820000	47550.865185	-29.719455	31.303907	-0.001440	0.004643
415.366000	47548.414340	-29.672390	31.315529	-0.001446	0.004644
415.910000	47545.341928	-29.660752	31.334029	-0.001440	0.004648
416.453000	47540.883060	-29.636693	31.351274	-0.001454	0.004643
417.000000	47544.309737	-29.613281	31.365447	-0.001462	0.004644
417.543000	47550.713822	-29.600320	31.374773	-0.001461	0.004643
418.085000	47553.662241	-29.560079	31.389360	-0.001465	0.004644
418.626000	47554.058370	-29.555139	31.402108	-0.001455	0.004651
419.171000	47547.148662	-29.518295	31.421092	-0.001461	0.004652
419.711000	47544.496531	-29.502551	31.432230	-0.001458	0.004658
420.256000	47542.713947	-29.486482	31.447973	-0.001451	0.004665
420.799000	47547.488431	-29.461814	31.463402	-0.001448	0.004668
421.342000	47545.263022	-29.431209	31.472206	-0.001458	0.004665
421.886000	47547.435291	-29.396568	31.489720	-0.001457	0.004668
422.431000	47549.388561	-29.392304	31.509529	-0.001462	0.004670
422.974000	47550.757298	-29.364442	31.524019	-0.001460	0.004672
423.517000	47547.676830	-29.344692	31.535753	-0.001454	0.004678
424.062000	47548.670375	-29.306489	31.548330	-0.001460	0.004680
424.607000	47546.902289	-29.293038	31.559606	-0.001457	0.004686
425.150000	47541.472423	-29.281799	31.581433	-0.001457	0.004690
425.694000	47536.546578	-29.247761	31.592574	-0.001459	0.004691
426.240000	47541.664045	-29.226152	31.611861	-0.001456	0.004695
426.782000	47536.780068	-29.194758	31.624787	-0.001455	0.004700
427.326000	47542.594788	-29.189112	31.642657	-0.001456	0.004705
427.863000	47541.398353	-29.166886	31.655444	-0.001453	0.004711
428.410000	47537.723692	-29.133131	31.670441	-0.001451	0.004717
428.950000	47522.880134	-29.110019	31.685142	-0.001448	0.004722
429.497000	47540.290478	-29.088301	31.702945	-0.001444	0.004727
430.034000	47521.203832	-29.075948	31.716653	-0.001441	0.004730
430.582000	47515.997800	-29.062513	31.734563	-0.001442	0.004728
431.127000	47525.999246	-29.015268	31.754352	-0.001461	0.004713
431.671000	47522.828606	-29.001678	31.770614	-0.001477	0.004706
432.217000	47520.443782	-28.983197	31.785138	-0.001492	0.004703
432.757000	47501.334591	-28.960468	31.799684	-0.001494	0.004710
433.304000	47508.365073	-28.940257	31.820084	-0.001493	0.004715
433.847000	47505.445635	-28.913583	31.829032	-0.001485	0.004721
434.390000	47499.197750	-28.895369	31.851633	-0.001488	0.004717
434.938000	47491.023973	-28.863949	31.868097	-0.001497	0.004713
435.483000	47490.102888	-28.831514	31.885007	-0.001504	0.004716
436.029000	47490.653607	-28.830515	31.901430	-0.001503	0.004721
436.572000	47481.384837	-28.797543	31.914885	-0.001509	0.004721
437.116000	47489.014341	-28.773658	31.931367	-0.001505	0.004727
437.660000	47472.452619	-28.751518	31.946713	-0.001506	0.004727
438.203000	47473.265806	-28.723019	31.964221	-0.001500	0.004735
438.747000	47455.430353	-28.702721	31.981661	-0.001493	0.004740
439.292000	47450.198556	-28.694606	31.998043	-0.001491	0.004747
439.832000	47447.950608	-28.662087	32.008257	-0.001496	0.004746
440.374000	47439.825136	-28.628184	32.027782	-0.001492	0.004753
440.916000	47435.741467	-28.620574	32.047391	-0.001487	0.004760
441.461000	47436.361425	-28.594664	32.061547	-0.001480	0.004766
442.005000	47419.891489	-28.568183	32.076467	-0.001478	0.004772
442.548000	47409.408573	-28.552922	32.094230	-0.001476	0.004777
443.093000	47403.729119	-28.525994	32.112817	-0.001473	0.004784
443.639000	47388.251116	-28.502309	32.128399	-0.001469	0.004789
444.182000	47379.003285	-28.492036	32.146227	-0.001475	0.004788
444.725000	47365.362613	-28.457247	32.163381	-0.001477	0.004791
445.271000	47361.108256	-28.416091	32.179433	-0.001476	0.004797
445.817000	47345.852477	-28.415470	32.200855	-0.001477	0.004796
446.363000	47353.090680	-28.402138	32.214431	-0.001475	0.004799
446.908000	47333.076523	-28.367098	32.235573	-0.001481	0.004801
447.454000	47314.044640	-28.346823	32.255792	-0.001484	0.004803
447.994000	47300.321846	-28.315167	32.269520	-0.001494	0.004804
448.538000	47285.115988	-28.309802	32.293387	-0.001500	0.004804
449.081000	47282.360803	-28.282165	32.303724	-0.001505	0.004802
449.623000	47272.146807	-28.242933	32.321208	-0.001505	0.004806
450.165000	47249.235769	-28.231336	32.343711	-0.001498	0.004811
450.706000	47241.414646	-28.218877	32.362209	-0.001500	0.004814
451.249000	47226.096072	-28.180104	32.379274	-0.001497	0.004820
451.791000	47221.543817	-28.169432	32.398334	-0.001496	0.004825
452.337000	47195.590964	-28.132537	32.416439	-0.001496	0.004830
452.881000	47178.845688	-28.115428	32.431591	-0.001494	0.004834
453.426000	47157.596466	-28.089746	32.452238	-0.001494	0.004839
453.969000	47135.944673	-28.073841	32.469109	-0.001491	0.004846
454.514000	47122.816082	-28.039039	32.488743	-0.001485	0.004854
455.061000	47090.520357	-28.028476	32.508454	-0.001477	0.004863
455.605000	47092.892296	-28.001948	32.525656	-0.001476	0.004870
456.147000	47065.540131	-27.988509	32.543022	-0.001477	0.004877
456.691000	47052.754530	-27.959089	32.562397	-0.001479	0.004884
457.233000	47024.160841	-27.919988	32.581596	-0.001478	0.004891
457.779000	46999.710401	-27.910652	32.598228	-0.001487	0.004889
458.322000	46972.842936	-27.913376	32.620019	-0.001488	0.004889
458.861000	46967.047551	-27.864721	32.636393	-0.001495	0.004891
459.406000	46933.879076	-27.854358	32.662100	-0.001496	0.004892
459.945000	46897.472344	-27.826644	32.681367	-0.001499	0.004893
460.491000	46878.917131	-27.796460	32.701846	-0.001501	0.004900
461.036000	46844.017624	-27.789173	32.718988	-0.001498	0.004903
461.582000	46805.470842	-27.740095	32.742096	-0.001499	0.004908
462.122000	46776.956087	-27.725900	32.761161	-0.001492	0.004915
462.662000	46747.583055	-27.712729	32.784308	-0.001491	0.004924
463.209000	46712.525754	-27.677499	32.803959	-0.001487	0.004929
463.748000	46681.697042	-27.659417	32.822006	-0.001486	0.004934
464.293000	46639.577088	-27.636946	32.847405	-0.001489	0.004939
464.838000	46614.579184	-27.614423	32.865011	-0.001492	0.004943
465.382000	46570.295032	-27.603442	32.886498	-0.001494	0.004950
465.928000	46527.445637	-27.564949	32.905410	-0.001487	0.004956
466.475000	46483.765353	-27.550378	32.923153	-0.001480	0.004962
467.016000	46439.093144	-27.516049	32.949259	-0.001475	0.004969
467.561000	46388.794647	-27.504759	32.970370	-0.001475	0.004974
468.105000	46342.140210	-27.480929	32.993633	-0.001478	0.004980
468.646000	46311.936322	-27.458576	33.014587	-0.001479	0.004983
469.190000	46246.188896	-27.443274	33.038973	-0.001481	0.004988
469.734000	46205.255779	-27.416729	33.059940	-0.001478	0.004992
470.279000	46156.656161	-27.387778	33.081592	-0.001480	0.004994
470.821000	46085.786496	-27.371609	33.100953	-0.001480	0.004997
471.366000	46026.576824	-27.337577	33.128795	-0.001480	0.005001
471.908000	45974.083603	-27.317769	33.148482	-0.001483	0.005002
472.454000	45904.527970	-27.295365	33.170988	-0.001487	0.004999
472.993000	45845.329606	-27.257478	33.195912	-0.001495	0.005000
473.536000	45774.960817	-27.250732	33.219769	-0.001504	0.004998
474.080000	45708.926892	-27.227214	33.235581	-0.001512	0.004994
474.624000	45645.662641	-27.212355	33.257432	-0.001530	0.004985
475.168000	45577.826851	-27.179805	33.283837	-0.001541	0.004987
475.707000	45511.672202	-27.164057	33.307888	-0.001541	0.004989
476.249000	45435.213463	-27.137809	33.332184	-0.001541	0.004987
476.790000	45367.205425	-27.117405	33.359244	-0.001546	0.004973
477.336000	45278.751846	-27.096408	33.378535	-0.001542	0.004969
477.877000	45224.460096	-27.067271	33.399729	-0.001551	0.004962
478.423000	45135.517042	-27.039190	33.420939	-0.001550	0.004957
478.964000	45062.770069	-27.029713	33.447638	-0.001561	0.004946
479.511000	44984.163352	-27.010140	33.473694	-0.001551	0.004950
480.051000	44900.630863	-26.975135	33.498509	-0.001539	0.004948
480.598000	44816.386660	-26.962399	33.522924	-0.001534	0.004948
481.140000	44749.391626	-26.932302	33.543537	-0.001522	0.004949
481.679000	44654.859496	-26.916497	33.575677	-0.001502	0.004943
482.223000	44572.386653	-26.888200	33.592986	-0.001470	0.004938
482.767000	44487.957364	-26.873741	33.618484	-0.001462	0.004941
483.314000	44409.717948	-26.850819	33.640080	-0.001444	0.004955
483.853000	44315.735031	-26.832431	33.669916	-0.001430	0.004968
484.397000	44228.396074	-26.803110	33.696283	-0.001415	0.004980
484.942000	44134.730432	-26.780684	33.712071	-0.001404	0.004994
485.488000	44056.466954	-26.746700	33.741742	-0.001392	0.005005
486.028000	43951.898304	-26.730730	33.769140	-0.001383	0.005016
486.588000	43858.376063	-26.706433	33.788896	-0.001376	0.005028
487.128000	43767.048633	-26.678108	33.815678	-0.001373	0.005032
487.670000	43681.998020	-26.669616	33.835445	-0.001375	0.005038
488.214000	43573.854727	-26.635822	33.867026	-0.001374	0.005043
488.755000	43488.847647	-26.616085	33.886251	-0.001386	0.005037
489.302000	43386.385412	-26.601349	33.915468	-0.001395	0.005040
489.842000	43289.454437	-26.570160	33.937975	-0.001405	0.005037
490.386000	43184.502815	-26.552725	33.964149	-0.001410	0.005038
490.933000	43083.633225	-26.525449	33.989172	-0.001415	0.005037
491.477000	42990.146685	-26.510462	34.016336	-0.001416	0.005038
492.019000	42891.074200	-26.481360	34.039573	-0.001418	0.005040
492.563000	42783.369187	-26.465268	34.064486	-0.001427	0.005038
493.107000	42688.547840	-26.438614	34.087575	-0.001425	0.005044
493.649000	42582.552983	-26.417830	34.115712	-0.001414	0.005056
494.192000	42472.350577	-26.394167	34.137949	-0.001406	0.005071
494.734000	42352.411024	-26.382368	34.162402	-0.001398	0.005081
495.280000	42256.337038	-26.351038	34.187236	-0.001391	0.005093
495.822000	42144.767649	-26.320625	34.211742	-0.001397	0.005094
496.367000	42020.784890	-26.280935	34.234040	-0.001389	0.005107
496.911000	41918.437475	-26.283566	34.265043	-0.001386	0.005114
497.457000	41808.235310	-26.260515	34.288322	-0.001381	0.005118
498.000000	41680.677938	-26.234730	34.316172	-0.001384	0.005125
498.545000	41555.532771	-26.199523	34.341950	-0.001393	0.005129
499.089000	41433.179813	-26.191098	34.366478	-0.001392	0.005134
499.629000	41309.880084	-26.163359	34.395699	-0.001398	0.005140
500.173000	41183.559584	-26.143203	34.418715	-0.001391	0.005143
500.714000	41054.994454	-26.108417	34.440981	-0.001396	0.005151
501.259000	40926.265133	-26.093523	34.471878	-0.001401	0.005156
501.799000	40785.459041	-26.056641	34.495432	-0.001412	0.005161
502.344000	40652.348363	-26.052783	34.519615	-0.001423	0.005163
502.888000	40508.375050	-26.020387	34.548821	-0.001419	0.005169
503.437000	28656.598199	-26.019730	34.644095	-0.001402	0.004938
503.976000	60.103585	-25.982803	34.883800	-0.001411	0.004961
504.521000	50.883930	-25.952848	35.130673	-0.001414	0.004979
505.066000	46.010039	-25.944575	35.378540	-0.001419	0.004989
505.607000	44.596337	-25.913715	35.618609	-0.001420	0.005003
506.152000	38.877124	-25.892335	35.863778	-0.001423	0.005011
506.697000	33.737560	-25.886220	36.109249	-0.001429	0.005019
507.242000	37.571301	-25.901455	36.350048	-0.001422	0.005025
507.780000	35.114229	-25.886143	36.590559	-0.001424	0.005025
508.323000	29.633316	-25.890068	36.828371	-0.001445	0.005021
508.874000	29.927972	-25.892026	36.863347	-0.001457	0.005014
509.420000	31.389978	-25.895884	36.876523	-0.001479	0.005010
