LabVIEW Measurement	
Writer_Version	2
Reader_Version	2
Separator	Tab
Decimal_Separator	.
Multi_Headings	No
X_Columns	No
Time_Pref	Absolute
Operator	mechlab
Description	Data file
Date	2024/02/16
Time	13:51:06.7820000648498535156
***End_of_Header***	
	
Channels	6						
Samples	1	1	1	1	1	1	
Date	2024/02/16	2024/02/16	2024/02/16	2024/02/16	2024/02/16	2024/02/16	
Time	13:51:06.7820000648498535156	13:51:06.8880000114440917969	13:51:06.9959998130798339844	13:51:07.1050000190734863281	13:51:07.2119998931884765625	13:51:07.3200001716613769531	
X_Dimension	Time	Time	Time	Time	Time	Time	
X0	0.0000000000000000E+0	0.0000000000000000E+0	0.0000000000000000E+0	0.0000000000000000E+0	0.0000000000000000E+0	0.0000000000000000E+0	
Delta_X	1.000000	1.000000	1.000000	1.000000	1.000000	1.000000	
***End_of_Header***							
X_Value	Untitled	Untitled 1	Untitled 2	Untitled 3	Untitled 4	Untitled 5	Comment
	0.000000	103.215054	-38.375218	32.379819	-1.341333E-5	2.540058E-5
	0.543000	214.417686	-38.362595	32.381708	-1.986654E-5	4.220648E-5
	1.089000	316.832180	-38.354611	32.384492	-2.500447E-5	5.798466E-5
	1.633000	399.660945	-38.356463	32.382661	-2.955797E-5	6.996471E-5
	2.182000	469.148100	-38.349939	32.377430	-3.398363E-5	8.091670E-5
	2.728000	515.114345	-38.338500	32.381550	-3.792785E-5	8.940838E-5
	3.278000	570.028133	-38.339994	32.382004	-4.064500E-5	9.762817E-5
	3.822000	605.903638	-38.347507	32.382364	-4.346758E-5	0.000105
	4.368000	646.917096	-38.332024	32.384011	-4.649858E-5	0.000111
	4.912000	684.913154	-38.329480	32.383140	-4.909533E-5	0.000117
	5.456000	722.938195	-38.317719	32.381794	-5.140051E-5	0.000122
	6.001000	755.928331	-38.316779	32.383186	-5.350220E-5	0.000129
	6.547000	791.048681	-38.309189	32.384988	-5.551332E-5	0.000135
	7.091000	814.002822	-38.305614	32.383421	-5.799092E-5	0.000140
	7.640000	850.153661	-38.303750	32.384190	-5.950700E-5	0.000144
	8.182000	875.031918	-38.290920	32.382497	-6.169302E-5	0.000150
	8.724000	900.386776	-38.292981	32.384314	-6.362346E-5	0.000155
	9.276000	922.196108	-38.286514	32.381982	-6.534175E-5	0.000159
	9.818000	951.853257	-38.294543	32.383199	-6.705134E-5	0.000163
	10.367000	978.831135	-38.288991	32.380167	-6.902891E-5	0.000167
	10.910000	999.014227	-38.279678	32.382111	-7.090970E-5	0.000173
	11.452000	1017.181424	-38.273823	32.381597	-7.223220E-5	0.000176
	11.994000	1048.643540	-38.271498	32.384227	-7.325447E-5	0.000181
	12.536000	1058.183613	-38.260761	32.385594	-7.506329E-5	0.000185
	13.083000	1086.361045	-38.259068	32.383230	-7.617735E-5	0.000189
	13.626000	1096.707798	-38.253767	32.384882	-7.773804E-5	0.000194
	14.172000	1127.657889	-38.252501	32.381779	-7.882977E-5	0.000198
	14.714000	1145.002306	-38.237649	32.381877	-8.070556E-5	0.000200
	15.262000	1170.965797	-38.246289	32.383628	-8.138789E-5	0.000205
	15.804000	1190.553137	-38.248308	32.386054	-8.232578E-5	0.000208
	16.353000	1201.704960	-38.241092	32.379309	-8.344231E-5	0.000211
	16.897000	1224.717066	-38.230693	32.384343	-8.486651E-5	0.000215
	17.439000	1242.483340	-38.221548	32.383520	-8.618277E-5	0.000218
	17.987000	1259.512169	-38.224726	32.381180	-8.746057E-5	0.000222
	18.529000	1278.618079	-38.219435	32.381505	-8.878178E-5	0.000225
	19.075000	1293.102889	-38.212122	32.382025	-8.996033E-5	0.000227
	19.617000	1313.994442	-38.214547	32.382471	-9.088208E-5	0.000231
	20.159000	1325.487615	-38.207207	32.383354	-9.213381E-5	0.000234
	20.705000	1351.829489	-38.207159	32.379451	-9.317093E-5	0.000237
	21.249000	1373.242727	-38.174425	32.381011	-9.416834E-5	0.000240
	21.794000	1381.504351	-38.184288	32.381518	-9.551931E-5	0.000243
	22.339000	1395.409511	-38.170351	32.380019	-9.683058E-5	0.000246
	22.884000	1411.527002	-38.168251	32.378811	-9.706629E-5	0.000249
	23.424000	1425.895883	-38.181390	32.381027	-9.822248E-5	0.000252
	23.972000	1434.049627	-38.178373	32.377422	-9.952630E-5	0.000255
	24.516000	1454.617543	-38.166905	32.381228	-0.000101	0.000258
	25.062000	1469.612767	-38.163537	32.377477	-0.000102	0.000261
	25.602000	1493.098255	-38.157183	32.380997	-0.000103	0.000264
	26.144000	1505.641238	-38.149773	32.379315	-0.000104	0.000266
	26.692000	1518.649551	-38.143471	32.377122	-0.000105	0.000268
	27.236000	1536.011681	-38.154468	32.378451	-0.000107	0.000271
	27.779000	1543.176799	-38.143625	32.380778	-0.000108	0.000273
	28.321000	1577.017091	-38.141136	32.374311	-0.000109	0.000276
	28.865000	1590.606665	-38.111902	32.377287	-0.000110	0.000278
	29.407000	1592.817386	-38.116307	32.371342	-0.000111	0.000280
	29.952000	1609.620797	-38.120697	32.378721	-0.000112	0.000284
	30.495000	1621.872345	-38.117708	32.377939	-0.000113	0.000286
	31.037000	1645.406137	-38.105362	32.378990	-0.000114	0.000290
	31.581000	1662.803690	-38.110823	32.378383	-0.000116	0.000292
	32.127000	1676.238690	-38.102798	32.377039	-0.000117	0.000295
	32.676000	1692.227371	-38.088883	32.375604	-0.000118	0.000298
	33.218000	1705.330683	-38.092004	32.377517	-0.000119	0.000301
	33.766000	1730.666221	-38.091630	32.377232	-0.000120	0.000304
	34.309000	1736.944154	-38.092599	32.378264	-0.000121	0.000308
	34.857000	1761.785379	-38.086957	32.372821	-0.000123	0.000310
	35.399000	1771.578245	-38.072292	32.377436	-0.000124	0.000314
	35.943000	1788.763259	-38.066454	32.375366	-0.000125	0.000316
	36.485000	1807.566464	-38.073461	32.376171	-0.000127	0.000319
	37.032000	1831.647704	-38.065265	32.375240	-0.000127	0.000323
	37.574000	1846.869959	-38.057504	32.375676	-0.000129	0.000325
	38.120000	1854.939976	-38.046974	32.378022	-0.000130	0.000329
	38.660000	1872.723963	-38.038688	32.375581	-0.000131	0.000331
	39.209000	1894.641176	-38.029397	32.374506	-0.000131	0.000334
	39.751000	1912.202963	-38.038025	32.379568	-0.000133	0.000337
	40.303000	1927.223951	-38.025485	32.374274	-0.000133	0.000340
	40.845000	1936.005650	-38.031606	32.379098	-0.000135	0.000343
	41.391000	1957.243385	-38.027246	32.375436	-0.000136	0.000345
	41.937000	1984.503040	-38.001496	32.382331	-0.000136	0.000350
	42.478000	1997.878466	-38.008462	32.377762	-0.000137	0.000353
	43.023000	2014.604592	-37.991884	32.379836	-0.000139	0.000357
	43.567000	2028.905847	-38.010043	32.376700	-0.000140	0.000360
	44.110000	2044.889699	-38.001580	32.377815	-0.000141	0.000362
	44.651000	2066.636238	-37.980758	32.378998	-0.000143	0.000366
	45.197000	2080.712074	-37.991011	32.376346	-0.000143	0.000369
	45.741000	2103.015722	-37.996544	32.380428	-0.000145	0.000372
	46.289000	2121.810876	-37.979830	32.381848	-0.000146	0.000375
	46.831000	2138.524121	-37.985224	32.381069	-0.000148	0.000379
	47.373000	2160.194984	-37.967464	32.375767	-0.000149	0.000382
	47.923000	2176.739164	-37.964772	32.379895	-0.000151	0.000386
	48.466000	2195.019074	-37.970655	32.372466	-0.000152	0.000389
	49.016000	2206.339963	-37.956647	32.377626	-0.000153	0.000393
	49.558000	2228.274889	-37.948142	32.371509	-0.000154	0.000395
	50.102000	2254.721426	-37.957497	32.376655	-0.000156	0.000399
	50.647000	2268.066259	-37.936204	32.375491	-0.000156	0.000402
	51.194000	2288.186559	-37.945740	32.378923	-0.000158	0.000406
	51.738000	2311.422478	-37.939254	32.373319	-0.000159	0.000409
	52.282000	2320.072146	-37.937637	32.379591	-0.000160	0.000413
	52.827000	2351.411896	-37.918940	32.376510	-0.000162	0.000416
	53.371000	2367.247615	-37.933528	32.383011	-0.000163	0.000420
	53.915000	2394.238379	-37.914886	32.376166	-0.000165	0.000424
	54.459000	2405.886126	-37.916271	32.378670	-0.000166	0.000427
	55.005000	2430.070418	-37.897966	32.374573	-0.000167	0.000430
	55.549000	2451.142310	-37.899519	32.378309	-0.000169	0.000434
	56.094000	2468.615542	-37.907895	32.375380	-0.000170	0.000437
	56.638000	2484.420669	-37.898028	32.377678	-0.000171	0.000441
	57.184000	2511.654564	-37.894147	32.376681	-0.000172	0.000446
	57.730000	2528.754244	-37.895529	32.377280	-0.000173	0.000450
	58.272000	2554.326476	-37.889800	32.377990	-0.000175	0.000453
	58.814000	2567.916051	-37.875701	32.376602	-0.000176	0.000457
	59.357000	2592.841008	-37.870130	32.376940	-0.000177	0.000461
	59.904000	2625.306247	-37.864813	32.377498	-0.000179	0.000466
	60.449000	2633.685412	-37.863370	32.374905	-0.000180	0.000470
	60.993000	2656.531678	-37.859303	32.377258	-0.000181	0.000474
	61.536000	2675.579627	-37.849919	32.376749	-0.000183	0.000477
	62.085000	2704.690946	-37.848125	32.372380	-0.000184	0.000482
	62.632000	2716.773431	-37.851893	32.375957	-0.000186	0.000486
	63.179000	2739.315382	-37.845198	32.379159	-0.000187	0.000489
	63.723000	2775.409876	-37.840281	32.375800	-0.000188	0.000494
	64.268000	2795.364333	-37.837492	32.377216	-0.000190	0.000497
	64.811000	2812.794092	-37.806300	32.373615	-0.000191	0.000503
	65.358000	2834.617921	-37.815333	32.372374	-0.000193	0.000506
	65.903000	2865.843355	-37.815330	32.375805	-0.000193	0.000509
	66.444000	2880.104359	-37.813265	32.380480	-0.000195	0.000514
	66.988000	2898.168513	-37.798449	32.375841	-0.000196	0.000518
	67.529000	2922.884153	-37.799280	32.374142	-0.000198	0.000522
	68.073000	2946.934806	-37.792211	32.376440	-0.000199	0.000525
	68.622000	2970.658600	-37.795244	32.375069	-0.000201	0.000531
	69.166000	2992.678867	-37.797573	32.372944	-0.000202	0.000535
	69.713000	3017.771280	-37.786073	32.377662	-0.000204	0.000539
	70.257000	3044.786200	-37.782827	32.378765	-0.000205	0.000543
	70.798000	3055.892942	-37.767852	32.370661	-0.000207	0.000547
	71.341000	3078.108036	-37.773411	32.375414	-0.000209	0.000549
	71.887000	3113.059334	-37.782521	32.372928	-0.000210	0.000555
	72.432000	3126.252817	-37.767936	32.378051	-0.000212	0.000559
	72.977000	3150.079661	-37.758887	32.372860	-0.000214	0.000563
	73.520000	3184.161484	-37.753242	32.376427	-0.000216	0.000567
	74.064000	3206.374969	-37.749767	32.373401	-0.000217	0.000572
	74.608000	3222.787122	-37.731437	32.372810	-0.000219	0.000576
	75.154000	3253.415196	-37.743835	32.373073	-0.000220	0.000581
	75.696000	3276.432140	-37.743272	32.373121	-0.000222	0.000586
	76.242000	3304.690090	-37.734915	32.374385	-0.000224	0.000590
	76.786000	3324.760479	-37.724719	32.375879	-0.000225	0.000595
	77.328000	3352.942753	-37.728725	32.373804	-0.000227	0.000598
	77.872000	3381.197482	-37.709990	32.372443	-0.000229	0.000603
	78.418000	3399.979761	-37.711204	32.377837	-0.000230	0.000608
	78.964000	3431.309857	-37.708582	32.382729	-0.000232	0.000613
	79.507000	3453.552326	-37.695621	32.370891	-0.000234	0.000617
	80.054000	3483.001780	-37.695939	32.369781	-0.000235	0.000623
	80.602000	3511.812008	-37.700058	32.372519	-0.000236	0.000627
	81.147000	3537.033236	-37.696503	32.373625	-0.000238	0.000632
	81.692000	3563.605371	-37.684465	32.374113	-0.000240	0.000636
	82.235000	3577.652230	-37.683870	32.374842	-0.000242	0.000641
	82.777000	3618.561049	-37.671413	32.372607	-0.000243	0.000647
	83.319000	3633.076458	-37.673503	32.374929	-0.000245	0.000651
	83.864000	3665.612551	-37.657724	32.370752	-0.000246	0.000656
	84.407000	3704.835555	-37.659730	32.373902	-0.000248	0.000662
	84.953000	3725.698136	-37.656777	32.372862	-0.000249	0.000667
	85.497000	3754.213711	-37.644392	32.374201	-0.000251	0.000673
	86.041000	3777.319216	-37.645419	32.374185	-0.000253	0.000677
	86.585000	3802.389093	-37.649087	32.373966	-0.000255	0.000682
	87.129000	3837.364549	-37.641332	32.377684	-0.000257	0.000687
	87.673000	3859.676257	-37.635845	32.376823	-0.000259	0.000692
	88.215000	3891.404062	-37.627169	32.373522	-0.000261	0.000696
	88.758000	3920.149888	-37.614623	32.378836	-0.000263	0.000701
	89.301000	3947.712262	-37.625524	32.377303	-0.000265	0.000707
	89.847000	3977.961960	-37.613142	32.374831	-0.000267	0.000711
	90.389000	4005.057394	-37.604064	32.374799	-0.000270	0.000717
	90.934000	4029.855158	-37.607461	32.375374	-0.000272	0.000722
	91.479000	4069.121640	-37.595420	32.372630	-0.000274	0.000727
	92.022000	4089.778125	-37.604276	32.378216	-0.000276	0.000732
	92.565000	4119.543172	-37.606421	32.371279	-0.000278	0.000737
	93.111000	4143.890098	-37.596638	32.376789	-0.000280	0.000743
	93.656000	4173.656756	-37.590165	32.375066	-0.000282	0.000746
	94.203000	4209.322966	-37.572946	32.379235	-0.000284	0.000752
	94.746000	4241.727033	-37.578072	32.381135	-0.000286	0.000758
	95.295000	4271.938090	-37.568969	32.376792	-0.000288	0.000764
	95.839000	4295.748841	-37.568608	32.381352	-0.000290	0.000769
	96.381000	4331.120398	-37.569729	32.380185	-0.000292	0.000774
	96.926000	4361.379760	-37.561275	32.379473	-0.000294	0.000780
	97.475000	4391.632682	-37.546971	32.376721	-0.000296	0.000785
	98.020000	4421.842130	-37.554896	32.376021	-0.000298	0.000791
	98.569000	4444.533835	-37.543428	32.380757	-0.000300	0.000795
	99.116000	4481.151642	-37.540105	32.375456	-0.000303	0.000800
	99.667000	4505.814158	-37.535799	32.376448	-0.000304	0.000806
	100.210000	4541.415967	-37.530083	32.377660	-0.000307	0.000812
	100.752000	4581.321681	-37.505235	32.376675	-0.000308	0.000819
	101.300000	4602.767139	-37.519453	32.379476	-0.000311	0.000823
	101.843000	4646.865659	-37.510091	32.380042	-0.000313	0.000829
	102.386000	4671.790630	-37.521646	32.378692	-0.000315	0.000835
	102.933000	4701.454243	-37.487672	32.377436	-0.000318	0.000840
	103.476000	4732.069450	-37.507760	32.383594	-0.000320	0.000845
	104.024000	4763.037279	-37.494170	32.376486	-0.000322	0.000851
	104.567000	4792.747588	-37.494627	32.378138	-0.000325	0.000857
	105.112000	4824.926242	-37.489172	32.374261	-0.000326	0.000863
	105.655000	4857.655565	-37.497403	32.381343	-0.000330	0.000869
	106.201000	4890.265738	-37.475067	32.377464	-0.000332	0.000875
	106.743000	4919.581564	-37.476822	32.376221	-0.000334	0.000880
	107.286000	4957.638842	-37.478159	32.379631	-0.000337	0.000886
	107.831000	4989.456827	-37.463365	32.379188	-0.000339	0.000892
	108.370000	5019.262137	-37.444780	32.379311	-0.000342	0.000897
	108.911000	5052.943055	-37.454460	32.380842	-0.000344	0.000903
	109.455000	5086.805919	-37.447569	32.380175	-0.000347	0.000909
	110.004000	5122.217740	-37.455539	32.377910	-0.000348	0.000915
	110.548000	5142.885503	-37.439438	32.380950	-0.000349	0.000915
	111.094000	5141.412225	-37.455481	32.377399	-0.000349	0.000913
	111.638000	5128.194581	-37.434916	32.382790	-0.000350	0.000914
	112.183000	5137.815171	-37.439029	32.378584	-0.000350	0.000915
	112.727000	5154.246655	-37.441573	32.382951	-0.000349	0.000909
	113.275000	5095.624659	-37.437711	32.383046	-0.000344	0.000897
	113.820000	5027.860287	-37.444564	32.380654	-0.000340	0.000886
	114.369000	4973.461692	-37.450354	32.380365	-0.000335	0.000876
	114.914000	4907.072383	-37.450998	32.386521	-0.000332	0.000866
	115.458000	4863.336140	-37.445263	32.382476	-0.000329	0.000857
	116.003000	4805.441934	-37.444709	32.381061	-0.000325	0.000848
	116.548000	4761.630016	-37.450245	32.381576	-0.000322	0.000839
	117.092000	4699.251572	-37.449865	32.382958	-0.000318	0.000830
	117.634000	4652.146919	-37.464440	32.378787	-0.000315	0.000822
	118.178000	4601.707666	-37.459519	32.377982	-0.000312	0.000812
	118.721000	4549.223537	-37.455433	32.374071	-0.000309	0.000804
	119.264000	4506.711006	-37.459143	32.377956	-0.000305	0.000794
	119.808000	4453.624686	-37.458534	32.377697	-0.000302	0.000785
	120.351000	4402.324012	-37.468005	32.377116	-0.000298	0.000776
	120.895000	4342.473495	-37.468781	32.382909	-0.000295	0.000767
	121.438000	4304.656136	-37.461935	32.378185	-0.000292	0.000758
	121.981000	4246.956768	-37.467586	32.376849	-0.000289	0.000749
	122.525000	4193.767404	-37.473505	32.378752	-0.000285	0.000739
	123.071000	4147.512913	-37.474636	32.377530	-0.000282	0.000731
	123.616000	4097.323241	-37.472201	32.379794	-0.000278	0.000721
	124.165000	4044.309384	-37.476986	32.379019	-0.000275	0.000712
	124.709000	3994.605976	-37.476404	32.374532	-0.000271	0.000703
	125.255000	3944.446899	-37.481988	32.378660	-0.000268	0.000695
	125.799000	3894.619511	-37.477627	32.377393	-0.000264	0.000685
	126.343000	3846.915899	-37.476729	32.377399	-0.000261	0.000678
	126.888000	3787.617671	-37.479582	32.378209	-0.000257	0.000669
	127.430000	3733.513754	-37.494937	32.377921	-0.000254	0.000659
	127.976000	3692.506715	-37.481112	32.377237	-0.000251	0.000651
	128.521000	3641.637571	-37.485250	32.375438	-0.000247	0.000641
	129.065000	3584.487273	-37.487436	32.376006	-0.000244	0.000632
	129.605000	3536.265199	-37.492296	32.375836	-0.000241	0.000622
	130.149000	3494.865289	-37.501380	32.373615	-0.000238	0.000614
	130.691000	3434.807080	-37.493729	32.375863	-0.000234	0.000605
	131.234000	3388.303028	-37.501625	32.373715	-0.000230	0.000598
	131.779000	3336.264927	-37.501290	32.373614	-0.000227	0.000588
	132.322000	3289.794689	-37.505699	32.373533	-0.000224	0.000580
	132.868000	3232.927780	-37.514413	32.373646	-0.000220	0.000570
	133.414000	3177.851348	-37.518999	32.373321	-0.000217	0.000562
	133.958000	3132.778712	-37.511798	32.372957	-0.000213	0.000552
	134.502000	3088.754278	-37.512281	32.372435	-0.000210	0.000543
	135.048000	3034.481308	-37.504987	32.374214	-0.000207	0.000534
	135.591000	2985.417138	-37.519488	32.377580	-0.000203	0.000526
	136.134000	2925.444275	-37.504304	32.368975	-0.000200	0.000518
	136.676000	2881.894834	-37.517215	32.372786	-0.000197	0.000507
	137.221000	2823.944307	-37.534315	32.372826	-0.000192	0.000499
	137.767000	2774.199051	-37.507995	32.369559	-0.000189	0.000491
	138.309000	2731.337142	-37.518973	32.369875	-0.000186	0.000482
	138.852000	2680.366571	-37.524097	32.373955	-0.000182	0.000472
	139.403000	2621.290559	-37.523424	32.371714	-0.000179	0.000464
	139.948000	2575.121425	-37.527291	32.366160	-0.000175	0.000454
	140.491000	2511.764054	-37.520831	32.368749	-0.000172	0.000447
	141.036000	2472.615127	-37.530711	32.369430	-0.000169	0.000438
	141.579000	2417.215066	-37.532969	32.372274	-0.000166	0.000429
	142.125000	2368.086497	-37.539226	32.370076	-0.000162	0.000420
	142.669000	2324.714177	-37.526988	32.369751	-0.000159	0.000411
	143.212000	2269.523435	-37.545802	32.371735	-0.000155	0.000403
	143.757000	2215.669109	-37.538150	32.367920	-0.000152	0.000395
	144.302000	2177.821178	-37.538991	32.366163	-0.000149	0.000386
	144.845000	2120.682169	-37.537580	32.369092	-0.000145	0.000377
	145.394000	2075.136163	-37.547309	32.369643	-0.000142	0.000371
	145.939000	2060.137716	-37.542146	32.372585	-0.000145	0.000381
	146.485000	2119.820744	-37.551836	32.363505	-0.000147	0.000390
	147.030000	2173.216180	-37.540739	32.363961	-0.000151	0.000401
	147.574000	2225.394350	-37.525652	32.369380	-0.000155	0.000410
	148.118000	2290.258808	-37.539039	32.362682	-0.000162	0.000432
	148.662000	2420.797626	-37.535110	32.367925	-0.000171	0.000456
	149.205000	2562.225819	-37.524077	32.366034	-0.000179	0.000480
	149.749000	2695.633912	-37.515733	32.366886	-0.000189	0.000504
	150.298000	2837.910656	-37.522899	32.367228	-0.000198	0.000528
	150.843000	2967.705604	-37.529751	32.365456	-0.000207	0.000552
	151.385000	3113.969063	-37.521363	32.369395	-0.000216	0.000574
	151.931000	3233.288451	-37.494286	32.370397	-0.000225	0.000597
	152.472000	3375.768091	-37.509863	32.372570	-0.000233	0.000620
	153.018000	3493.648023	-37.503780	32.370279	-0.000241	0.000642
	153.560000	3610.225356	-37.491909	32.371371	-0.000249	0.000664
	154.106000	3739.083228	-37.477795	32.370395	-0.000257	0.000687
	154.651000	3862.110788	-37.483202	32.371116	-0.000266	0.000710
	155.196000	4004.031735	-37.478436	32.371570	-0.000274	0.000733
	155.740000	4123.507337	-37.484896	32.375031	-0.000282	0.000754
	156.288000	4247.908361	-37.474272	32.380794	-0.000291	0.000776
	156.832000	4375.879071	-37.473750	32.376422	-0.000299	0.000799
	157.380000	4492.976511	-37.465693	32.381420	-0.000306	0.000819
	157.925000	4616.136132	-37.468076	32.373371	-0.000314	0.000839
	158.473000	4718.545883	-37.448509	32.378725	-0.000322	0.000857
	159.019000	4823.821686	-37.441099	32.376981	-0.000329	0.000873
	159.558000	4919.800542	-37.441846	32.378208	-0.000335	0.000889
	160.103000	5006.165254	-37.444793	32.381879	-0.000340	0.000902
	160.646000	5076.781185	-37.424267	32.378684	-0.000344	0.000913
	161.189000	5142.244667	-37.440359	32.380802	-0.000349	0.000922
	161.735000	5189.893557	-37.425729	32.381951	-0.000352	0.000929
	162.283000	5232.927784	-37.418676	32.383611	-0.000356	0.000937
	162.826000	5283.391200	-37.403689	32.383805	-0.000359	0.000945
	163.369000	5316.923989	-37.398201	32.380412	-0.000361	0.000952
	163.916000	5361.537767	-37.400433	32.380711	-0.000365	0.000960
	164.460000	5404.177513	-37.402204	32.379848	-0.000368	0.000967
	165.004000	5447.899273	-37.393442	32.382085	-0.000371	0.000975
	165.548000	5493.554815	-37.394166	32.386481	-0.000374	0.000982
	166.093000	5528.008607	-37.390305	32.389595	-0.000378	0.000988
	166.641000	5568.178399	-37.395197	32.380048	-0.000380	0.000996
	167.185000	5611.127296	-37.391725	32.384157	-0.000383	0.001003
	167.730000	5660.125492	-37.376921	32.385143	-0.000386	0.001009
	168.272000	5690.054791	-37.368310	32.383961	-0.000389	0.001017
	168.820000	5723.381488	-37.370156	32.386937	-0.000392	0.001023
	169.363000	5761.746316	-37.358485	32.383597	-0.000395	0.001029
	169.908000	5806.432558	-37.361654	32.383906	-0.000398	0.001037
	170.455000	5842.918353	-37.344029	32.387109	-0.000401	0.001044
	171.001000	5892.246634	-37.333582	32.383053	-0.000404	0.001051
	171.541000	5930.141303	-37.336680	32.386307	-0.000407	0.001059
	172.084000	5970.179072	-37.341501	32.384874	-0.000410	0.001065
	172.627000	6009.558293	-37.334639	32.385964	-0.000412	0.001071
	173.173000	6043.487187	-37.333473	32.388872	-0.000415	0.001079
	173.718000	6092.082858	-37.312666	32.389072	-0.000418	0.001085
	174.269000	6129.764993	-37.319729	32.388180	-0.000421	0.001091
	174.814000	6163.872615	-37.314022	32.392725	-0.000424	0.001098
	175.357000	6199.801307	-37.319522	32.392405	-0.000427	0.001105
	175.905000	6243.141480	-37.291583	32.387722	-0.000430	0.001112
	176.449000	6279.868804	-37.299569	32.388040	-0.000433	0.001119
	176.995000	6321.204353	-37.299077	32.385284	-0.000436	0.001125
	177.541000	6363.654120	-37.304619	32.390221	-0.000439	0.001131
	178.088000	6400.020774	-37.281671	32.390323	-0.000442	0.001139
	178.631000	6447.053006	-37.274718	32.387735	-0.000445	0.001147
	179.173000	6482.561456	-37.286009	32.385911	-0.000448	0.001153
	179.718000	6521.079261	-37.289573	32.390249	-0.000451	0.001159
	180.265000	6564.419442	-37.268419	32.389837	-0.000454	0.001167
	180.809000	6605.985247	-37.273771	32.394827	-0.000457	0.001174
	181.350000	6647.373937	-37.258616	32.395500	-0.000460	0.001183
	181.892000	6683.832374	-37.251313	32.392476	-0.000463	0.001188
	182.434000	6732.424840	-37.249435	32.394925	-0.000466	0.001196
	182.980000	6770.142410	-37.247493	32.391102	-0.000470	0.001201
	183.523000	6797.489058	-37.245387	32.390442	-0.000472	0.001209
	184.066000	6848.326064	-37.238641	32.393596	-0.000475	0.001216
	184.617000	6893.463170	-37.243098	32.391342	-0.000478	0.001223
	185.160000	6934.275436	-37.239568	32.391163	-0.000482	0.001229
	185.705000	6966.718185	-37.217686	32.397110	-0.000485	0.001236
	186.247000	7009.715414	-37.220256	32.394263	-0.000488	0.001245
	186.794000	7065.041503	-37.209349	32.394756	-0.000491	0.001252
	187.337000	7099.218377	-37.222484	32.394530	-0.000494	0.001261
	187.884000	7141.721296	-37.204225	32.397433	-0.000498	0.001267
	188.429000	7187.309249	-37.192059	32.391856	-0.000501	0.001276
	188.974000	7231.604259	-37.202077	32.394543	-0.000504	0.001283
	189.521000	7266.839000	-37.200799	32.397037	-0.000507	0.001291
	190.067000	7301.523073	-37.192020	32.390065	-0.000509	0.001298
	190.612000	7347.088487	-37.175893	32.394271	-0.000513	0.001305
	191.158000	7396.904679	-37.173819	32.395430	-0.000515	0.001313
	191.704000	7435.662415	-37.176692	32.392844	-0.000518	0.001321
	192.247000	7480.561234	-37.170631	32.389028	-0.000521	0.001329
	192.792000	7520.125653	-37.162416	32.393480	-0.000524	0.001336
	193.337000	7564.890832	-37.161781	32.393624	-0.000528	0.001344
	193.888000	7611.948856	-37.159421	32.390363	-0.000530	0.001352
	194.431000	7639.609494	-37.150897	32.394091	-0.000533	0.001357
	194.976000	7692.428611	-37.135191	32.394400	-0.000536	0.001366
	195.519000	7731.827190	-37.141519	32.397516	-0.000540	0.001374
	196.064000	7784.007082	-37.135436	32.398084	-0.000544	0.001381
	196.610000	7819.826316	-37.136486	32.393276	-0.000546	0.001389
	197.150000	7862.232644	-37.128925	32.398148	-0.000548	0.001397
	197.694000	7905.176762	-37.116748	32.395075	-0.000553	0.001404
	198.235000	7950.581178	-37.125762	32.399213	-0.000556	0.001413
	198.781000	7991.591517	-37.118674	32.400876	-0.000559	0.001421
	199.324000	8038.606078	-37.092525	32.393933	-0.000563	0.001427
	199.870000	8084.904128	-37.100930	32.393957	-0.000566	0.001436
	200.421000	8131.823695	-37.094692	32.397013	-0.000570	0.001443
	200.966000	8172.985391	-37.098512	32.399184	-0.000572	0.001451
	201.509000	8219.426748	-37.083115	32.396638	-0.000576	0.001459
	202.054000	8250.418782	-37.099104	32.395683	-0.000580	0.001468
	202.605000	8316.690664	-37.082571	32.400266	-0.000583	0.001475
	203.148000	8360.654015	-37.079538	32.401647	-0.000586	0.001484
	203.695000	8392.159688	-37.086838	32.396250	-0.000589	0.001492
	204.239000	8438.884436	-37.058870	32.397066	-0.000593	0.001499
	204.782000	8487.758727	-37.062860	32.395519	-0.000596	0.001508
	205.323000	8527.828755	-37.059581	32.397448	-0.000599	0.001516
	205.867000	8580.193841	-37.064782	32.396178	-0.000602	0.001524
	206.412000	8622.110706	-37.044114	32.400913	-0.000605	0.001531
	206.958000	8662.039046	-37.054635	32.395475	-0.000608	0.001539
	207.499000	8706.879934	-37.030724	32.397377	-0.000611	0.001548
	208.044000	8753.814011	-37.035693	32.398921	-0.000615	0.001556
	208.588000	8803.090848	-37.026969	32.401216	-0.000618	0.001565
	209.130000	8849.029859	-37.031796	32.398627	-0.000622	0.001572
	209.673000	8895.572675	-37.025088	32.395521	-0.000625	0.001581
	210.216000	8941.308812	-37.019826	32.404868	-0.000628	0.001591
	210.761000	8988.999663	-37.012793	32.400831	-0.000631	0.001598
	211.307000	9029.758846	-37.014983	32.399063	-0.000634	0.001607
	211.855000	9083.194695	-37.021875	32.399651	-0.000638	0.001615
	212.400000	9125.037509	-37.003963	32.400284	-0.000641	0.001623
	212.947000	9180.036811	-36.998099	32.398796	-0.000644	0.001632
	213.490000	9224.053321	-37.003194	32.401108	-0.000648	0.001641
	214.034000	9274.241517	-37.005750	32.402011	-0.000651	0.001649
	214.581000	9322.434745	-36.974169	32.401934	-0.000654	0.001659
	215.124000	9363.553000	-36.973889	32.402855	-0.000658	0.001666
	215.669000	9405.492431	-36.968981	32.402290	-0.000661	0.001674
	216.215000	9451.196380	-36.962489	32.401250	-0.000664	0.001683
	216.760000	9500.046554	-36.958940	32.402639	-0.000667	0.001692
	217.303000	9552.905988	-36.974001	32.405755	-0.000671	0.001700
	217.847000	9591.187176	-36.956280	32.401089	-0.000674	0.001709
	218.395000	9641.866479	-36.946187	32.402240	-0.000678	0.001718
	218.941000	9695.732259	-36.944973	32.403145	-0.000681	0.001726
	219.484000	9742.988398	-36.944007	32.406608	-0.000685	0.001736
	220.033000	9796.588510	-36.930095	32.401288	-0.000688	0.001743
	220.578000	9834.756995	-36.935618	32.408771	-0.000691	0.001753
	221.120000	9879.746054	-36.929519	32.405547	-0.000695	0.001762
	221.672000	9919.933663	-36.920608	32.401441	-0.000699	0.001771
	222.214000	9980.761722	-36.920879	32.407697	-0.000701	0.001780
	222.767000	10030.017672	-36.910329	32.406757	-0.000705	0.001789
	223.307000	10074.584880	-36.904268	32.406038	-0.000709	0.001798
	223.854000	10117.073392	-36.900646	32.404531	-0.000712	0.001808
	224.397000	10177.513417	-36.902291	32.404803	-0.000716	0.001817
	224.941000	10230.628892	-36.905476	32.399957	-0.000720	0.001826
	225.483000	10286.983983	-36.895071	32.409864	-0.000723	0.001835
	226.030000	10327.691681	-36.879279	32.403871	-0.000727	0.001845
	226.574000	10367.632952	-36.882003	32.404562	-0.000730	0.001854
	227.117000	10422.980097	-36.885813	32.406769	-0.000733	0.001863
	227.662000	10465.051594	-36.873479	32.406565	-0.000737	0.001873
	228.206000	10509.694495	-36.876654	32.405000	-0.000741	0.001882
	228.748000	10566.199342	-36.861322	32.410128	-0.000745	0.001891
	229.299000	10616.221743	-36.858308	32.412354	-0.000748	0.001902
	229.843000	10661.181848	-36.871721	32.411796	-0.000752	0.001911
	230.394000	10716.005709	-36.854621	32.409800	-0.000756	0.001919
	230.940000	10760.149473	-36.843334	32.407177	-0.000759	0.001929
	231.483000	10818.119565	-36.837585	32.414885	-0.000763	0.001938
	232.027000	10858.529404	-36.835396	32.411664	-0.000767	0.001948
	232.579000	10914.291990	-36.839714	32.411173	-0.000771	0.001958
	233.120000	10967.054875	-36.823203	32.411598	-0.000774	0.001966
	233.665000	11019.049723	-36.825477	32.411226	-0.000779	0.001975
	234.211000	11059.456350	-36.802387	32.414664	-0.000782	0.001984
	234.755000	11112.790843	-36.817107	32.410814	-0.000786	0.001995
	235.305000	11158.134182	-36.801424	32.413482	-0.000790	0.002006
	235.849000	11211.186905	-36.792073	32.414068	-0.000794	0.002016
	236.391000	11267.918815	-36.802931	32.413460	-0.000798	0.002025
	236.937000	11312.729201	-36.792543	32.413502	-0.000801	0.002033
	237.489000	11352.950671	-36.787451	32.413674	-0.000805	0.002043
	238.034000	11403.225899	-36.779761	32.413391	-0.000810	0.002054
	238.582000	11459.345964	-36.768967	32.413695	-0.000814	0.002063
	239.125000	11510.819146	-36.775813	32.417281	-0.000818	0.002073
	239.671000	11559.221780	-36.752047	32.413051	-0.000823	0.002083
	240.216000	11621.933795	-36.772931	32.415923	-0.000827	0.002094
	240.766000	11667.710284	-36.774705	32.416698	-0.000831	0.002104
	241.312000	11718.486283	-36.767559	32.413928	-0.000835	0.002114
	241.857000	11768.801781	-36.745449	32.421218	-0.000839	0.002125
	242.397000	11816.122408	-36.749474	32.414735	-0.000843	0.002132
	242.943000	11868.117294	-36.749706	32.410824	-0.000847	0.002143
	243.485000	11919.690325	-36.741137	32.416601	-0.000851	0.002153
	244.031000	11974.198658	-36.740744	32.412682	-0.000856	0.002163
	244.575000	12008.116422	-36.733025	32.418596	-0.000860	0.002173
	245.116000	12072.219631	-36.734277	32.419965	-0.000864	0.002182
	245.662000	12122.044051	-36.723499	32.415537	-0.000868	0.002194
	246.202000	12173.166252	-36.717207	32.417535	-0.000873	0.002204
	246.747000	12226.497580	-36.702235	32.419992	-0.000877	0.002214
	247.298000	12289.488189	-36.700094	32.421651	-0.000882	0.002225
	247.842000	12335.119793	-36.706676	32.420493	-0.000886	0.002235
	248.390000	12391.239906	-36.708692	32.420603	-0.000890	0.002244
	248.936000	12435.340262	-36.685477	32.418353	-0.000894	0.002256
	249.477000	12477.394122	-36.694436	32.418252	-0.000899	0.002266
	250.022000	12533.432125	-36.687828	32.420020	-0.000904	0.002277
	250.575000	12586.314239	-36.673980	32.420229	-0.000909	0.002288
	251.119000	12643.356980	-36.684356	32.418067	-0.000914	0.002299
	251.664000	12701.937417	-36.671146	32.423139	-0.000920	0.002309
	252.206000	12749.839350	-36.666583	32.419429	-0.000924	0.002321
	252.753000	12800.336844	-36.658941	32.419669	-0.000929	0.002332
	253.297000	12846.164909	-36.662967	32.422789	-0.000934	0.002343
	253.841000	12913.002203	-36.648002	32.423796	-0.000939	0.002353
	254.393000	12964.509269	-36.648214	32.423580	-0.000945	0.002363
	254.938000	13015.790918	-36.650681	32.419068	-0.000950	0.002373
	255.482000	13067.470275	-36.643854	32.420377	-0.000954	0.002386
	256.024000	13111.134311	-36.649599	32.426227	-0.000959	0.002396
	256.568000	13166.492866	-36.635101	32.427863	-0.000965	0.002406
	257.111000	13222.105827	-36.624896	32.421451	-0.000970	0.002419
	257.658000	13280.580029	-36.626059	32.425176	-0.000975	0.002431
	258.203000	13328.069790	-36.623321	32.422002	-0.000980	0.002440
	258.744000	13378.741211	-36.609783	32.426775	-0.000986	0.002453
	259.293000	13428.510949	-36.622764	32.424100	-0.000991	0.002463
	259.837000	13478.655856	-36.597443	32.422242	-0.000997	0.002475
	260.382000	13541.997557	-36.606901	32.427731	-0.001002	0.002486
	260.926000	13592.680260	-36.596928	32.427415	-0.001007	0.002498
	261.477000	13653.231578	-36.609381	32.425076	-0.001013	0.002511
	262.022000	13699.323747	-36.583273	32.426953	-0.001019	0.002523
	262.573000	13753.816074	-36.586375	32.431256	-0.001024	0.002536
	263.117000	13808.305185	-36.581357	32.423892	-0.001030	0.002547
	263.664000	13858.084607	-36.569722	32.427525	-0.001036	0.002559
	264.210000	13904.656612	-36.572373	32.430882	-0.001041	0.002572
	264.755000	13969.735694	-36.576089	32.427232	-0.001048	0.002584
	265.298000	14021.928742	-36.567288	32.428572	-0.001053	0.002594
	265.844000	14064.267667	-36.553060	32.433228	-0.001059	0.002606
	266.386000	14119.386365	-36.559031	32.434634	-0.001065	0.002619
	266.935000	14170.513501	-36.546352	32.430824	-0.001070	0.002631
	267.476000	14240.595343	-36.540163	32.432802	-0.001077	0.002645
	268.020000	14287.671345	-36.543470	32.428641	-0.001084	0.002658
	268.566000	14332.724998	-36.534151	32.433739	-0.001090	0.002669
	269.110000	14391.780533	-36.523102	32.436091	-0.001096	0.002681
	269.656000	14446.509594	-36.531088	32.433423	-0.001103	0.002693
	270.200000	14493.110611	-36.520245	32.433966	-0.001109	0.002707
	270.744000	14556.695515	-36.517044	32.436375	-0.001116	0.002720
	271.287000	14603.884244	-36.505548	32.433732	-0.001123	0.002732
	271.831000	14656.529782	-36.511464	32.434934	-0.001130	0.002744
	272.375000	14712.455201	-36.521147	32.441880	-0.001136	0.002758
	272.925000	14759.502246	-36.497520	32.438394	-0.001144	0.002771
	273.466000	14823.839109	-36.501783	32.439655	-0.001151	0.002784
	274.008000	14875.674752	-36.481431	32.431984	-0.001158	0.002799
	274.553000	14922.254861	-36.476819	32.437344	-0.001165	0.002811
	275.097000	14968.635312	-36.478636	32.440331	-0.001173	0.002824
	275.642000	15030.969162	-36.474601	32.441426	-0.001180	0.002839
	276.183000	15084.841661	-36.479798	32.444542	-0.001187	0.002851
	276.727000	15125.807176	-36.461436	32.437576	-0.001195	0.002866
	277.270000	15179.354431	-36.466002	32.442825	-0.001202	0.002879
	277.814000	15238.947815	-36.442291	32.440508	-0.001211	0.002894
	278.358000	15287.730633	-36.451198	32.440696	-0.001218	0.002908
	278.903000	15351.751946	-36.441280	32.448594	-0.001227	0.002922
	279.445000	15393.867124	-36.436324	32.442635	-0.001235	0.002936
	279.991000	15450.979277	-36.437200	32.446134	-0.001243	0.002950
	280.537000	15500.512439	-36.436337	32.441318	-0.001251	0.002964
	281.080000	15550.747631	-36.421301	32.443944	-0.001260	0.002980
	281.625000	15603.132381	-36.406880	32.442824	-0.001268	0.002993
	282.171000	15664.503404	-36.421678	32.444901	-0.001277	0.003008
	282.715000	15711.619737	-36.412342	32.442307	-0.001286	0.003023
	283.264000	15764.894913	-36.413218	32.445899	-0.001295	0.003038
	283.810000	15816.593752	-36.416348	32.448277	-0.001305	0.003054
	284.353000	15873.504664	-36.394044	32.449680	-0.001314	0.003069
	284.898000	15924.208434	-36.388196	32.444659	-0.001324	0.003085
	285.443000	15977.292015	-36.377865	32.444743	-0.001333	0.003100
	285.988000	16025.310053	-36.391684	32.452462	-0.001343	0.003115
	286.533000	16082.451232	-36.385948	32.450135	-0.001353	0.003131
	287.078000	16134.694323	-36.373032	32.448606	-0.001363	0.003147
	287.622000	16185.388448	-36.371019	32.450182	-0.001373	0.003162
	288.167000	16239.328649	-36.363168	32.450870	-0.001383	0.003178
	288.708000	16286.290440	-36.362575	32.455050	-0.001393	0.003195
	289.249000	16337.016778	-36.373299	32.453390	-0.001404	0.003212
	289.793000	16383.250785	-36.358482	32.456716	-0.001415	0.003229
	290.335000	16438.356753	-36.338861	32.451018	-0.001425	0.003245
	290.881000	16488.081584	-36.351807	32.456541	-0.001436	0.003262
	291.425000	16545.953807	-36.341035	32.454630	-0.001447	0.003280
	291.968000	16589.508526	-36.331171	32.455844	-0.001458	0.003298
	292.514000	16650.800728	-36.338597	32.453844	-0.001470	0.003315
	293.058000	16693.741984	-36.324627	32.458236	-0.001481	0.003332
	293.600000	16745.444104	-36.327149	32.457042	-0.001493	0.003351
	294.146000	16796.242929	-36.307463	32.458523	-0.001505	0.003369
	294.692000	16852.791626	-36.314670	32.455897	-0.001518	0.003388
	295.241000	16896.921188	-36.310500	32.457655	-0.001530	0.003417
	295.787000	17116.123121	-36.291712	32.456721	-0.001578	0.003522
	296.331000	17567.756234	-36.271334	32.455077	-0.001629	0.003608
	296.875000	17851.636828	-36.250228	32.460956	-0.001683	0.003694
	297.416000	18116.103840	-36.226179	32.459246	-0.001745	0.003786
	297.959000	18371.124143	-36.213433	32.462970	-0.001813	0.003883
	298.506000	18631.079681	-36.183104	32.463054	-0.001890	0.003988
	299.053000	18868.423823	-36.172583	32.470205	-0.001972	0.004101
	299.601000	19108.072189	-36.123811	32.465862	-0.002062	0.004223
	300.144000	19340.531266	-36.118311	32.471822	-0.002159	0.004351
	300.688000	19547.156973	-36.081792	32.476385	-0.002264	0.004489
	301.230000	19764.301943	-36.062149	32.477612	-0.002378	0.004638
	301.772000	19959.413502	-36.050874	32.480602	-0.002502	0.004802
	302.317000	20143.696766	-36.026551	32.487463	-0.002636	0.004977
	302.863000	20307.097858	-35.994445	32.491081	-0.002780	0.005165
	303.405000	20462.894183	-35.971944	32.494730	-0.002934	0.005368
	303.950000	20600.059323	-35.950081	32.503044	-0.003100	0.005589
	304.496000	20730.344253	-35.931851	32.505918	-0.003278	0.005826
	305.036000	20829.387163	-35.903715	32.514307	-0.003468	0.006077
	305.580000	20891.740843	-35.870981	32.520786	-0.003672	0.006351
	306.124000	20972.666185	-35.868044	32.526545	-0.003891	0.006643
	306.671000	21002.008245	-35.851582	32.536678	-0.004123	0.006955
	307.214000	21022.027445	-35.818831	32.541545	-0.004369	0.007285
	307.759000	21041.228681	-35.807627	32.552569	-0.004626	0.007634
	308.306000	21043.019185	-35.777527	32.565697	-0.004892	0.007995
	308.850000	21030.910734	-35.756766	32.576396	-0.005169	0.008372
	309.397000	21023.938712	-35.715208	32.585724	-0.005446	0.008751
	309.936000	21027.640484	-35.705656	32.601376	-0.005729	0.009142
	310.481000	21014.826781	-35.673276	32.610649	-0.006017	0.009541
	311.025000	21018.235503	-35.665125	32.623898	-0.006311	0.009950
	311.574000	21012.105599	-35.634062	32.634138	-0.006602	0.010356
	312.116000	21016.203473	-35.604709	32.655342	-0.006898	0.010772
	312.667000	21023.722950	-35.585361	32.667515	-0.007195	0.011189
	313.213000	21032.223019	-35.568567	32.681069	-0.007488	0.011604
	313.757000	21038.064703	-35.550324	32.695421	-0.007786	0.012025
	314.299000	21051.276120	-35.519473	32.711204	-0.008083	0.012445
	314.843000	21066.012363	-35.495926	32.723083	-0.008379	0.012868
	315.386000	21073.201756	-35.475732	32.740523	-0.008674	0.013286
	315.928000	21093.076043	-35.464680	32.756677	-0.008969	0.013709
	316.473000	21105.239242	-35.432222	32.766211	-0.009264	0.014129
	317.017000	21131.277249	-35.407336	32.784144	-0.009559	0.014554
	317.563000	21136.078765	-35.384951	32.802183	-0.009852	0.014973
	318.104000	21158.830421	-35.369961	32.817410	-0.010146	0.015400
	318.656000	21168.808625	-35.349045	32.827969	-0.010441	0.015825
	319.202000	21192.262316	-35.318609	32.850648	-0.010735	0.016245
	319.752000	21211.777538	-35.283894	32.865779	-0.011023	0.016668
	320.295000	21223.794214	-35.264531	32.877564	-0.011313	0.017087
	320.839000	21248.112567	-35.248419	32.892190	-0.011600	0.017504
	321.384000	21263.442967	-35.229906	32.903906	-0.011886	0.017919
	321.926000	21286.442594	-35.198968	32.921436	-0.012173	0.018336
	322.471000	21297.465797	-35.171312	32.936625	-0.012458	0.018754
	323.019000	21321.882374	-35.174909	32.949993	-0.012743	0.019171
	323.564000	21343.054463	-35.128859	32.962268	-0.013028	0.019588
	324.110000	21347.113695	-35.117230	32.980489	-0.013310	0.020002
	324.657000	21372.016541	-35.097525	32.990675	-0.013592	0.020411
	325.202000	21386.741524	-35.059474	33.009455	-0.013872	0.020824
	325.747000	21420.670971	-35.029241	33.022783	-0.014152	0.021235
	326.295000	21434.048243	-35.026256	33.036666	-0.014432	0.021648
	326.839000	21455.054491	-34.999582	33.052821	-0.014708	0.022052
	327.380000	21470.908200	-34.973791	33.069095	-0.014983	0.022460
	327.924000	21480.058782	-34.946470	33.081441	-0.015259	0.022866
	328.469000	21503.117994	-34.924011	33.098480	-0.015534	0.023276
	329.013000	21524.257886	-34.915307	33.107327	-0.015809	0.023678
	329.559000	21541.256428	-34.881448	33.124533	-0.016083	0.024087
	330.102000	21567.360469	-34.864184	33.140007	-0.016358	0.024494
	330.648000	21579.393253	-34.840676	33.153250	-0.016631	0.024898
	331.191000	21597.636456	-34.823875	33.165268	-0.016905	0.025304
	331.737000	21609.226445	-34.793814	33.176697	-0.017177	0.025709
	332.286000	21627.632275	-34.768000	33.190164	-0.017447	0.026114
	332.829000	21648.520986	-34.742498	33.205240	-0.017717	0.026515
	333.371000	21666.751309	-34.717450	33.220907	-0.017989	0.026920
	333.916000	21673.285372	-34.700550	33.230802	-0.018257	0.027323
	334.461000	21702.358569	-34.681315	33.244853	-0.018527	0.027728
	335.003000	21710.179157	-34.654104	33.262177	-0.018795	0.028127
	335.549000	21727.813720	-34.644964	33.273394	-0.019063	0.028531
	336.092000	21746.620486	-34.608800	33.289641	-0.019330	0.028931
	336.637000	21764.048948	-34.580887	33.300026	-0.019598	0.029335
	337.179000	21778.139533	-34.567709	33.317164	-0.019864	0.029734
	337.723000	21803.037568	-34.537538	33.324299	-0.020131	0.030138
	338.267000	21812.312139	-34.526827	33.344890	-0.020397	0.030540
	338.810000	21818.702899	-34.498466	33.357260	-0.020664	0.030940
	339.353000	21840.781529	-34.483617	33.370103	-0.020928	0.031340
	339.895000	21854.194234	-34.458672	33.388970	-0.021192	0.031741
	340.440000	21871.640413	-34.421359	33.401808	-0.021457	0.032145
	340.984000	21879.551171	-34.402207	33.412213	-0.021724	0.032548
	341.537000	21904.149719	-34.389729	33.429017	-0.021989	0.032950
	342.080000	21918.963273	-34.366149	33.445166	-0.022254	0.033355
	342.627000	21929.136319	-34.344235	33.456447	-0.022519	0.033762
	343.170000	21948.575888	-34.315201	33.474208	-0.022784	0.034163
	343.715000	21956.035801	-34.291271	33.489482	-0.023051	0.034572
	344.267000	21966.925374	-34.282383	33.499931	-0.023313	0.034969
	344.808000	21971.718846	-34.244512	33.517071	-0.023575	0.035371
	345.352000	21996.496127	-34.224452	33.527483	-0.023838	0.035775
	345.893000	22008.248752	-34.209494	33.542537	-0.024102	0.036179
	346.436000	22025.455018	-34.191522	33.553393	-0.024365	0.036581
	346.981000	22034.362474	-34.159518	33.573266	-0.024625	0.036983
	347.526000	22042.524421	-34.135961	33.585760	-0.024888	0.037387
	348.068000	22055.019334	-34.115822	33.599488	-0.025149	0.037787
	348.611000	22068.514163	-34.089058	33.614521	-0.025411	0.038189
	349.155000	22089.995431	-34.074772	33.624883	-0.025672	0.038594
	349.699000	22107.927886	-34.048701	33.641912	-0.025934	0.038997
	350.241000	22101.247294	-34.013110	33.646522	-0.026195	0.039400
	350.785000	22117.609835	-33.980749	33.665782	-0.026456	0.039803
	351.329000	22127.839242	-33.974546	33.681198	-0.026715	0.040206
	351.868000	22140.084580	-33.952468	33.693887	-0.026976	0.040608
	352.409000	22143.720343	-33.947567	33.707367	-0.027234	0.041010
	352.951000	22153.771021	-33.892831	33.718753	-0.027495	0.041415
	353.492000	22167.413988	-33.883544	33.735850	-0.027757	0.041824
	354.034000	22180.274411	-33.858042	33.745000	-0.028018	0.042228
	354.578000	22184.995429	-33.834997	33.761683	-0.028279	0.042636
	355.119000	22188.714920	-33.821131	33.775750	-0.028539	0.043043
	355.662000	22197.870345	-33.801541	33.790902	-0.028801	0.043449
	356.206000	22219.604413	-33.788023	33.799288	-0.029061	0.043839
	356.750000	22219.720347	-33.743412	33.818506	-0.029323	0.044233
	357.291000	22225.653821	-33.726598	33.829371	-0.029583	0.044637
	357.834000	22246.107807	-33.706378	33.844189	-0.029845	0.045042
	358.383000	22244.789079	-33.687272	33.860890	-0.030106	0.045440
	358.923000	22255.904081	-33.664997	33.871453	-0.030367	0.045803
	359.470000	22255.517639	-33.640800	33.886342	-0.030627	0.046170
	360.014000	22282.033916	-33.626724	33.900628	-0.030891	0.046544
	360.560000	22285.400780	-33.582708	33.917093	-0.031155	0.046763
	361.102000	22291.764173	-33.567801	33.929810	-0.030862	0.044378
	361.648000	22296.006970	-33.544416	33.945671	-0.030580	0.043341
	362.191000	22301.867989	-33.533618	33.958781	-0.030464	0.042924
	362.737000	22309.474431	-33.499705	33.975007	-0.030389	0.042636
	363.283000	22321.452485	-33.477552	33.987889	-0.030300	0.042464
	363.827000	22322.030537	-33.460971	34.006989	-0.030272	0.042348
	364.374000	22327.139606	-33.437327	34.018212	-0.030296	0.042216
	364.917000	22338.893846	-33.408406	34.032662	-0.030304	0.042021
	365.467000	22342.420118	-33.379497	34.046607	-0.030187	0.041420
	366.009000	22347.701476	-33.370371	34.063398	-0.027963	0.036957
	366.555000	22351.074782	-33.335891	34.076903	-0.026709	0.035454
	367.097000	22349.556392	-33.321386	34.086345	-0.025990	0.034338
	367.640000	22364.714533	-33.290172	34.105300	-0.025474	0.033637
	368.182000	22371.123010	-33.262564	34.119451	-0.024999	0.033015
	368.733000	22377.665131	-33.246463	34.134196	-0.024503	0.032438
	369.276000	22371.219621	-33.229569	34.147482	-0.024177	0.031984
	369.821000	22387.408270	-33.214794	34.158045	-0.023859	0.031539
	370.365000	22372.614028	-33.180295	34.179655	-0.018347	0.021829
	370.905000	22387.768949	-33.148494	34.186982	-0.015465	0.019396
	371.448000	22372.000552	-33.133797	34.207993	-0.014340	0.018228
	371.992000	22403.806243	-33.122873	34.220688	-0.013624	0.017313
	372.538000	22393.927849	-33.087804	34.233541	-0.013136	0.016786
	373.085000	22398.512003	-33.064773	34.246215	-0.012770	0.016404
	373.630000	22401.099547	-33.039886	34.264025	-0.012485	0.016094
	374.174000	22406.079803	-33.028628	34.277767	-0.012244	0.015828
	374.718000	22403.144464	-33.004965	34.293186	-0.012044	0.015606
	375.267000	22404.981668	-32.960203	34.304920	-0.011869	0.015362
	375.810000	22415.848706	-32.950377	34.325796	-0.011716	0.015165
	376.355000	22416.560401	-32.930917	34.335111	-0.011595	0.015001
	376.897000	22414.096842	-32.911048	34.350038	-0.011491	0.014874
	377.445000	22415.027519	-32.900601	34.365860	-0.011394	0.014767
	377.988000	22426.351846	-32.873045	34.380666	-0.011344	0.014500
	378.533000	22427.375914	-32.849408	34.395135	-0.011274	0.014403
	379.075000	22422.179895	-32.825194	34.409610	-0.011208	0.014318
	379.620000	22430.911849	-32.802849	34.423614	-0.011145	0.014243
	380.165000	22436.458884	-32.769557	34.438964	-0.011088	0.014176
	380.708000	22425.454982	-32.759548	34.448823	-0.011036	0.014117
	381.246000	22435.054816	-32.731635	34.465951	-0.010979	0.014064
	381.789000	22424.342354	-32.704445	34.479155	-0.010935	0.013998
	382.334000	22426.598203	-32.677031	34.495812	-0.010913	0.013924
	382.876000	22421.096251	-32.667302	34.509034	-0.010889	0.013856
	383.423000	22432.997019	-32.646026	34.523431	-0.010860	0.013797
	383.967000	22434.077442	-32.609846	34.537562	-0.010827	0.013741
	384.509000	22432.509138	-32.589052	34.554946	-0.010807	0.013686
	385.051000	22439.162361	-32.565573	34.573288	-0.010777	0.013642
	385.596000	22435.573291	-32.545513	34.586161	-0.010753	0.013600
	386.137000	22424.736846	-32.532874	34.606089	-0.010726	0.013565
	386.680000	22426.152185	-32.504442	34.620631	-0.010757	0.013568
	387.224000	22422.923793	-32.489219	34.635075	-0.010734	0.013562
	387.774000	22424.094388	-32.454292	34.648833	-0.010719	0.013558
	388.322000	22417.634386	-32.432268	34.667732	-0.010704	0.013548
	388.867000	22430.486763	-32.403353	34.684787	-0.010689	0.013537
	389.411000	22416.486333	-32.385638	34.694571	-0.010669	0.013530
	389.954000	22418.043369	-32.360771	34.716853	-0.010647	0.013522
	390.497000	22415.077434	-32.343030	34.731053	-0.010628	0.013510
	391.041000	22425.408286	-32.315963	34.745954	-0.010609	0.013499
	391.587000	22399.441072	-32.291341	34.762702	-0.010592	0.013484
	392.130000	22413.538112	-32.275017	34.773589	-0.010576	0.013472
	392.672000	22409.255059	-32.242630	34.793164	-0.010565	0.013453
	393.216000	22407.213365	-32.231875	34.811572	-0.010561	0.013431
	393.758000	22401.584208	-32.198348	34.829148	-0.010555	0.013416
	394.303000	22406.189295	-32.180643	34.843242	-0.010548	0.013412
	394.847000	22396.269036	-32.152372	34.858044	-0.010547	0.013408
	395.391000	22400.534378	-32.141239	34.871052	-0.010542	0.013396
	395.936000	22388.060390	-32.120416	34.887945	-0.010532	0.013385
	396.481000	22398.808274	-32.079918	34.899554	-0.010528	0.013382
	397.027000	22378.086997	-32.070357	34.918400	-0.010523	0.013365
	397.568000	22392.111578	-32.040801	34.936013	-0.010635	0.012877
	398.111000	22379.423436	-32.027343	34.954949	-0.010615	0.012740
	398.655000	22382.822507	-31.983515	34.970896	-0.010599	0.012648
	399.201000	22376.370553	-31.970253	34.980714	-0.010582	0.012571
	399.744000	22376.586317	-31.958203	35.002568	-0.010573	0.012503
	400.291000	22362.296058	-31.933452	35.017122	-0.010572	0.012445
	400.835000	22365.783686	-31.907593	35.031487	-0.010569	0.012396
	401.382000	22363.017413	-31.875779	35.050059	-0.010564	0.012356
	401.924000	22355.633175	-31.855620	35.060381	-0.010563	0.012325
	402.468000	22350.018511	-31.845228	35.079375	-0.010560	0.012292
	403.012000	22347.443849	-31.825529	35.096210	-0.010554	0.012261
	403.554000	22339.392999	-31.806433	35.112041	-0.010548	0.012233
	404.097000	22338.819778	-31.772053	35.129321	-0.010548	0.012201
	404.640000	22331.269691	-31.743969	35.145809	-0.010543	0.012176
	405.185000	22329.289182	-31.733049	35.159900	-0.010543	0.012145
	405.727000	22317.631551	-31.708133	35.177500	-0.010541	0.012120
	406.278000	22320.004942	-31.666881	35.192881	-0.010536	0.012087
	406.821000	22311.598245	-31.655136	35.212371	-0.010531	0.012057
	407.370000	22308.899600	-31.637827	35.229977	-0.010526	0.012031
	407.911000	22298.055106	-31.617195	35.248415	-0.010521	0.012006
	408.454000	22291.783494	-31.584666	35.261186	-0.010516	0.011983
	408.998000	22292.698071	-31.562411	35.272240	-0.010513	0.011961
	409.543000	22282.686035	-31.551120	35.296145	-0.010506	0.011942
	410.084000	22275.751034	-31.528733	35.308510	-0.010505	0.011917
	410.629000	22270.207218	-31.513388	35.329551	-0.010499	0.011898
	411.172000	22265.317132	-31.473105	35.346613	-0.010493	0.011884
	411.721000	22267.891795	-31.451996	35.360678	-0.010488	0.011866
	412.261000	22256.243827	-31.434738	35.379273	-0.010486	0.011849
	412.803000	22259.283826	-31.410386	35.391992	-0.010479	0.011836
	413.344000	22247.711536	-31.384785	35.408159	-0.010474	0.011822
	413.887000	22238.465942	-31.371798	35.423507	-0.010471	0.011806
	414.430000	22225.091872	-31.356739	35.444754	-0.010470	0.011787
	414.975000	22230.445686	-31.324823	35.463030	-0.010475	0.011763
	415.517000	22221.312804	-31.293618	35.476276	-0.010473	0.011748
	416.060000	22205.816531	-31.276022	35.493225	-0.010474	0.011729
	416.605000	22213.067125	-31.253322	35.511301	-0.010467	0.011718
	417.148000	22201.510937	-31.222874	35.527328	-0.010460	0.011709
	417.691000	22198.308311	-31.210251	35.545570	-0.010457	0.011697
	418.233000	22183.976191	-31.177871	35.560099	-0.010455	0.011683
	418.774000	22186.101616	-31.158185	35.578983	-0.010459	0.011663
	419.321000	22172.642208	-31.154823	35.596858	-0.010463	0.011647
	419.864000	22172.663139	-31.117171	35.616270	-0.010458	0.011638
	420.408000	22159.757631	-31.100454	35.632415	-0.010454	0.011628
	420.950000	22157.273139	-31.061485	35.651516	-0.010449	0.011621
	421.495000	22152.729242	-31.039333	35.659845	-0.010446	0.011612
	422.037000	22145.496361	-31.012888	35.680034	-0.010443	0.011606
	422.578000	22141.691529	-30.988475	35.701347	-0.010437	0.011600
	423.121000	22135.403818	-30.983857	35.718037	-0.010430	0.011595
	423.664000	22126.948818	-30.954388	35.734455	-0.010422	0.011591
	424.207000	22121.021784	-30.929623	35.748647	-0.010414	0.011587
	424.750000	22116.223481	-30.912978	35.768778	-0.010396	0.011574
	425.294000	22103.438735	-30.892719	35.786639	-0.010348	0.011557
	425.837000	22097.911024	-30.879461	35.807119	-0.010329	0.011542
	426.383000	22105.952210	-30.848530	35.825284	-0.010312	0.011532
	426.925000	22084.992635	-30.816771	35.840844	-0.010296	0.011524
	427.467000	22080.822297	-30.805835	35.862950	-0.010285	0.011512
	428.011000	22066.060265	-30.775509	35.877899	-0.010283	0.011501
	428.554000	22069.204926	-30.753038	35.896169	-0.010277	0.011490
	429.099000	22056.600521	-30.733587	35.916302	-0.010275	0.011476
	429.643000	22052.565437	-30.707129	35.930637	-0.010272	0.011467
	430.187000	22045.195693	-30.675142	35.945179	-0.010268	0.011458
	430.732000	22041.914168	-30.669658	35.968325	-0.010263	0.011452
	431.276000	22034.686118	-30.634476	35.984153	-0.010253	0.011447
	431.816000	22014.538072	-30.604981	36.004146	-0.010252	0.011436
	432.359000	22012.931124	-30.593140	36.025885	-0.010251	0.011427
	432.903000	22016.259342	-30.564524	36.039609	-0.010243	0.011424
	433.446000	22003.434346	-30.552851	36.056763	-0.010242	0.011415
	433.990000	22009.174598	-30.524026	36.073617	-0.010244	0.011404
	434.533000	21987.873672	-30.509798	36.092846	-0.010244	0.011392
	435.075000	21991.494942	-30.475022	36.111137	-0.010240	0.011388
	435.623000	21977.518674	-30.444739	36.133715	-0.010232	0.011384
	436.169000	21976.166133	-30.430614	36.146497	-0.010240	0.011377
	436.710000	21961.328426	-30.405341	36.164000	-0.010248	0.011373
	437.255000	21954.715463	-30.394225	36.183279	-0.010241	0.011369
	437.797000	21951.646480	-30.362060	36.205711	-0.010230	0.011361
	438.338000	21943.763094	-30.340214	36.218306	-0.010222	0.011351
	438.880000	21932.187588	-30.309418	36.235354	-0.010214	0.011344
	439.427000	21926.685642	-30.294733	36.258787	-0.010211	0.011334
	439.969000	21918.016493	-30.288995	36.272139	-0.010215	0.011320
	440.512000	21916.733188	-30.245131	36.287895	-0.010217	0.011309
	441.057000	21910.195904	-30.227844	36.309524	-0.010210	0.011302
	441.598000	21899.795823	-30.207273	36.328017	-0.010213	0.011287
	442.140000	21889.051167	-30.198433	36.350515	-0.010222	0.011267
	442.682000	21888.194557	-30.156305	36.366975	-0.010229	0.011253
	443.222000	21883.064559	-30.150303	36.381918	-0.010226	0.011250
	443.762000	21881.362610	-30.114573	36.407433	-0.010219	0.011245
	444.303000	21870.416684	-30.095435	36.417903	-0.010223	0.011234
	444.848000	21860.686434	-30.065634	36.439818	-0.010227	0.011223
	445.396000	21852.790167	-30.051072	36.456782	-0.010237	0.011215
	445.942000	21853.791692	-30.040387	36.473881	-0.010240	0.011207
	446.487000	21841.177632	-30.010577	36.494446	-0.010243	0.011201
	447.029000	21834.653228	-29.984428	36.514389	-0.010242	0.011198
	447.572000	21831.771027	-29.951919	36.533700	-0.010245	0.011190
	448.114000	21825.794080	-29.941856	36.552443	-0.010243	0.011191
	448.657000	21824.700776	-29.902407	36.570681	-0.010235	0.011193
	449.198000	21814.508409	-29.902500	36.588176	-0.010230	0.011194
	449.740000	21802.048926	-29.871250	36.603845	-0.010227	0.011194
	450.283000	21806.084005	-29.851323	36.628493	-0.010229	0.011188
	450.827000	21786.507577	-29.812206	36.644598	-0.010227	0.011186
	451.371000	21783.295292	-29.810438	36.662845	-0.010228	0.011179
	451.917000	21785.159867	-29.772303	36.681192	-0.010230	0.011170
	452.458000	21770.114454	-29.749603	36.702204	-0.010234	0.011161
	453.002000	21759.931748	-29.720959	36.720164	-0.010241	0.011151
	453.546000	21764.858864	-29.699911	36.738708	-0.010238	0.011146
	454.091000	21746.338707	-29.685651	36.759294	-0.010238	0.011138
	454.637000	21744.744640	-29.653554	36.776662	-0.010243	0.011125
	455.184000	21735.871001	-29.647230	36.794513	-0.010256	0.011113
	455.726000	21734.326850	-29.618637	36.809329	-0.010260	0.011107
	456.274000	21729.124397	-29.604876	36.834366	-0.010264	0.011102
	456.819000	21715.740678	-29.572538	36.852736	-0.010256	0.011103
	457.365000	21716.753473	-29.556788	36.869889	-0.010251	0.011105
	457.909000	21711.502715	-29.524201	36.889423	-0.010253	0.011100
	458.455000	21704.102383	-29.513777	36.905240	-0.010254	0.011093
	459.001000	21693.444678	-29.487760	36.920922	-0.010258	0.011086
	459.544000	21693.433407	-29.450775	36.948355	-0.010262	0.011078
	460.089000	21669.520799	-29.442467	36.963587	-0.010260	0.011077
	460.632000	21679.133504	-29.421667	36.987825	-0.010256	0.011076
	461.174000	21674.515540	-29.385844	37.004109	-0.010250	0.011078
	461.715000	21671.100374	-29.364896	37.016162	-0.010240	0.011080
	462.259000	21659.621485	-29.358639	37.039531	-0.010244	0.011075
	462.803000	21666.374530	-29.326301	37.058664	-0.010237	0.011074
	463.349000	21655.227336	-29.307484	37.080360	-0.010243	0.011065
	463.895000	21644.967345	-29.275574	37.098219	-0.010239	0.011066
	464.435000	21625.948039	-29.257087	37.114511	-0.010235	0.011064
	464.979000	21638.993622	-29.237678	37.136452	-0.010238	0.011058
	465.522000	21628.149140	-29.217297	37.153453	-0.010236	0.011057
	466.068000	21617.705589	-29.182836	37.173363	-0.010231	0.011059
	466.612000	21612.412968	-29.171703	37.192689	-0.010230	0.011057
	467.155000	21614.525507	-29.153419	37.212721	-0.010229	0.011052
	467.702000	21602.122384	-29.119705	37.231995	-0.010231	0.011046
	468.245000	21591.659512	-29.092117	37.249949	-0.010232	0.011041
	468.789000	21592.527393	-29.073101	37.270360	-0.010238	0.011031
	469.331000	21589.168582	-29.067968	37.287280	-0.010244	0.011024
	469.875000	21583.930707	-29.034982	37.306207	-0.010251	0.011015
	470.417000	21571.722414	-29.002811	37.324206	-0.010260	0.011006
	470.960000	21573.248851	-28.981741	37.343083	-0.010265	0.010998
	471.508000	21564.595810	-28.967691	37.360150	-0.010278	0.010982
	472.052000	21561.280475	-28.937314	37.382131	-0.010286	0.010973
	472.600000	21562.281998	-28.924133	37.403754	-0.010293	0.010968
	473.143000	21549.320148	-28.889115	37.419300	-0.010292	0.010962
	473.686000	21549.473113	-28.875200	37.439242	-0.010297	0.010962
	474.229000	21535.950924	-28.855338	37.453778	-0.010290	0.010963
	474.768000	21533.113808	-28.831800	37.475558	-0.010291	0.010958
	475.312000	21531.778980	-28.797356	37.495771	-0.010290	0.010961
	475.855000	21522.535006	-28.782849	37.516216	-0.010284	0.010964
	476.398000	21519.198739	-28.760281	37.532497	-0.010280	0.010966
	476.940000	21514.484169	-28.735694	37.557288	-0.010281	0.010957
	477.482000	21501.019946	-28.720677	37.571856	-0.010283	0.010955
	478.026000	21502.406299	-28.686294	37.596012	-0.010280	0.010954
	478.571000	21509.038580	-28.673323	37.611252	-0.010272	0.010960
	479.111000	21489.523349	-28.644388	37.632228	-0.010263	0.010965
	479.657000	21494.078513	-28.625083	37.656623	-0.010262	0.010962
	480.199000	21494.648510	-28.603710	37.674471	-0.010260	0.010962
	480.744000	21489.727839	-28.586288	37.698032	-0.010257	0.010962
	481.292000	21467.106594	-28.555663	37.711140	-0.010262	0.010951
	481.837000	21466.417442	-28.530676	37.733511	-0.010271	0.010942
	482.376000	21478.258616	-28.493746	37.753914	-0.010273	0.010940
	482.921000	21465.459392	-28.482391	37.770899	-0.010270	0.010940
	483.465000	21450.851951	-28.467352	37.790349	-0.010267	0.010943
	484.010000	21451.732714	-28.436631	37.808936	-0.010267	0.010938
	484.552000	21451.945256	-28.419631	37.828656	-0.010277	0.010928
	485.098000	21444.155264	-28.397446	37.845862	-0.010290	0.010915
	485.640000	21437.758069	-28.383058	37.863756	-0.010294	0.010907
	486.187000	21437.874000	-28.355363	37.885055	-0.010291	0.010908
	486.731000	21425.931389	-28.324690	37.904667	-0.010291	0.010903
	487.272000	21422.855969	-28.307690	37.920931	-0.010297	0.010897
	487.818000	21421.563004	-28.288719	37.938469	-0.010298	0.010899
	488.358000	21420.480971	-28.246736	37.958145	-0.010294	0.010899
	488.901000	21402.374639	-28.240633	37.978251	-0.010295	0.010892
	489.444000	21398.948203	-28.216320	37.996969	-0.010297	0.010888
	489.986000	21410.731407	-28.196100	38.014174	-0.010296	0.010889
	490.529000	21403.360061	-28.168176	38.031267	-0.010299	0.010886
	491.071000	21393.058210	-28.143770	38.053815	-0.010301	0.010878
	491.613000	21386.566014	-28.125997	38.076070	-0.010307	0.010873
	492.154000	21386.905761	-28.108807	38.095613	-0.010308	0.010872
	492.695000	21385.322966	-28.079364	38.118164	-0.010311	0.010866
	493.241000	21381.292716	-28.053357	38.133726	-0.010315	0.010860
	493.782000	21363.508418	-28.029871	38.150156	-0.010321	0.010851
	494.326000	21373.167812	-28.019012	38.168603	-0.010321	0.010849
	494.870000	21363.943162	-27.986596	38.190768	-0.010326	0.010845
	495.418000	21356.082326	-27.958142	38.209046	-0.010329	0.010836
	495.960000	21352.548010	-27.937963	38.230529	-0.010333	0.010833
	496.510000	21351.965130	-27.911113	38.252604	-0.010330	0.010830
	497.050000	21343.793530	-27.895832	38.269938	-0.010335	0.010828
	497.592000	21341.949888	-27.875744	38.289473	-0.010330	0.010834
	498.133000	21343.687258	-27.859147	38.307516	-0.010325	0.010832
	498.675000	21331.511174	-27.830029	38.329890	-0.010321	0.010834
	499.221000	21334.375662	-27.804694	38.348849	-0.010327	0.010825
	499.765000	21326.323214	-27.780871	38.371059	-0.010327	0.010824
	500.309000	21321.057968	-27.762000	38.388541	-0.010328	0.010821
	500.855000	21314.436960	-27.741544	38.409337	-0.010320	0.010826
	501.398000	21311.348660	-27.709464	38.426966	-0.010317	0.010828
	501.940000	21308.951121	-27.689839	38.448609	-0.010308	0.010830
	502.485000	21317.948735	-27.656892	38.469033	-0.010306	0.010829
	503.028000	21298.831222	-27.652416	38.490232	-0.010303	0.010829
	503.574000	21290.005894	-27.624721	38.506550	-0.010303	0.010823
	504.114000	21293.057160	-27.599790	38.527686	-0.010308	0.010820
	504.658000	21289.827166	-27.574333	38.545996	-0.010311	0.010811
	505.201000	21293.177922	-27.544945	38.560675	-0.010317	0.010804
	505.746000	21274.915407	-27.530573	38.583060	-0.010317	0.010798
	506.286000	21269.964144	-27.501799	38.601591	-0.010317	0.010799
	506.829000	21276.680151	-27.497555	38.615985	-0.010309	0.010803
	507.372000	21269.466602	-27.466981	38.647101	-0.010300	0.010806
	507.917000	21261.423817	-27.439860	38.661300	-0.010293	0.010804
	508.461000	21253.794846	-27.410298	38.680251	-0.010295	0.010797
	509.001000	21252.184679	-27.402646	38.698591	-0.010296	0.010792
	509.546000	21254.306879	-27.362547	38.717698	-0.010299	0.010785
	510.088000	21253.298914	-27.354419	38.738013	-0.010303	0.010777
	510.632000	21238.934615	-27.317389	38.755714	-0.010306	0.010771
	511.179000	21241.789441	-27.321704	38.777072	-0.010303	0.010772
	511.723000	21230.202679	-27.281090	38.794007	-0.010302	0.010771
	512.265000	21230.610051	-27.257958	38.822083	-0.010305	0.010762
	512.809000	21230.201069	-27.233626	38.834294	-0.010308	0.010754
	513.351000	21224.663705	-27.212323	38.852990	-0.010309	0.010745
	513.892000	21219.807441	-27.187891	38.876685	-0.010316	0.010741
	514.438000	21215.245838	-27.170933	38.893702	-0.010309	0.010747
	514.976000	21206.571869	-27.143670	38.912488	-0.010301	0.010752
	515.521000	21195.092987	-27.122586	38.934771	-0.010301	0.010751
	516.062000	21200.530521	-27.096363	38.956475	-0.010296	0.010746
	516.606000	21194.437651	-27.084101	38.975848	-0.010297	0.010740
	517.151000	21197.951035	-27.048346	38.989651	-0.010305	0.010733
	517.696000	21184.176058	-27.028103	39.012633	-0.010306	0.010732
	518.239000	21177.820729	-27.015705	39.031410	-0.010303	0.010727
	518.783000	21175.590648	-26.993578	39.051488	-0.010302	0.010722
	519.327000	21173.861330	-26.974459	39.072803	-0.010307	0.010717
	519.869000	21170.422013	-26.940829	39.091599	-0.010300	0.010720
	520.412000	21170.977519	-26.912120	39.114395	-0.010291	0.010723
	520.958000	21163.878295	-26.888400	39.133063	-0.010284	0.010725
	521.504000	21158.424659	-26.872160	39.152424	-0.010276	0.010725
	522.044000	21156.081867	-26.861130	39.173791	-0.010267	0.010728
	522.589000	21148.369167	-26.826637	39.189291	-0.010261	0.010729
	523.134000	21162.242364	-26.808185	39.207003	-0.010260	0.010726
	523.678000	21138.114015	-26.782519	39.234463	-0.010260	0.010722
	524.223000	21142.152314	-26.759468	39.254051	-0.010261	0.010712
	524.766000	21137.846727	-26.740604	39.275641	-0.010273	0.010702
	525.312000	21128.580218	-26.711254	39.289877	-0.010266	0.010700
	525.854000	21123.839887	-26.692473	39.309351	-0.010266	0.010698
	526.395000	21124.271413	-26.670427	39.329713	-0.010270	0.010693
	526.936000	21118.077102	-26.659233	39.348134	-0.010270	0.010686
	527.478000	21118.114136	-26.631867	39.368995	-0.010267	0.010686
	528.027000	21106.063648	-26.595938	39.393362	-0.010265	0.010687
	528.571000	21101.273402	-26.583147	39.412928	-0.010270	0.010676
	529.112000	21101.370012	-26.546027	39.428913	-0.010274	0.010669
	529.655000	21096.880867	-26.534524	39.452859	-0.010274	0.010664
	530.202000	21090.865285	-26.512156	39.468216	-0.010267	0.010663
	530.746000	21090.019947	-26.488593	39.497008	-0.010260	0.010663
	531.290000	21081.626149	-26.465925	39.511233	-0.010258	0.010662
	531.831000	21083.611483	-26.460699	39.532896	-0.010258	0.010656
	532.374000	21067.216768	-26.420081	39.550990	-0.010259	0.010649
	532.916000	21067.645071	-26.410072	39.570913	-0.010256	0.010646
	533.461000	21056.926193	-26.373210	39.591117	-0.010262	0.010628
	534.007000	21061.363813	-26.339818	39.614142	-0.010274	0.010609
	534.551000	21058.433310	-26.332421	39.634497	-0.010281	0.010595
	535.093000	21041.732663	-26.297246	39.651486	-0.010289	0.010584
	535.635000	21042.243086	-26.282455	39.668925	-0.010286	0.010584
	536.179000	21043.584354	-26.255575	39.692932	-0.010278	0.010585
	536.718000	21033.210052	-26.235349	39.713625	-0.010271	0.010584
	537.262000	21031.398614	-26.219711	39.734157	-0.010271	0.010583
	537.806000	21006.994933	-26.181267	39.753028	-0.010264	0.010585
	538.351000	21019.984144	-26.180333	39.774969	-0.010265	0.010579
	538.893000	21015.910423	-26.159201	39.793904	-0.010267	0.010568
	539.435000	21013.838140	-26.118461	39.811885	-0.010270	0.010563
	539.977000	20994.443685	-26.109084	39.838493	-0.010269	0.010562
	540.523000	21001.592822	-26.075928	39.853376	-0.010267	0.010558
	541.068000	20997.623763	-26.046971	39.877155	-0.010260	0.010560
	541.610000	20986.805056	-26.041992	39.897601	-0.010253	0.010561
	542.155000	20976.823636	-26.006124	39.914713	-0.010249	0.010559
	542.697000	20977.622276	-25.994702	39.939097	-0.010247	0.010554
	543.241000	20977.714057	-25.969764	39.958900	-0.010247	0.010549
	543.782000	20966.618399	-25.941458	39.978464	-0.010256	0.010538
	544.326000	20957.804350	-25.926802	39.998328	-0.010263	0.010529
	544.867000	20952.349107	-25.899777	40.018873	-0.010258	0.010526
	545.409000	20949.727756	-25.875413	40.042127	-0.010256	0.010524
	545.950000	20945.868188	-25.862551	40.060585	-0.010248	0.010523
	546.494000	20942.161585	-25.819251	40.085790	-0.010234	0.010529
	547.037000	20936.696680	-25.812385	40.106330	-0.010228	0.010531
	547.578000	20923.953826	-25.793594	40.125015	-0.010219	0.010528
	548.123000	20926.063143	-25.770073	40.146488	-0.010219	0.010519
	548.669000	20917.593668	-25.743680	40.167097	-0.010219	0.010511
	549.215000	20910.653852	-25.716661	40.190987	-0.010212	0.010510
	549.755000	20903.799375	-25.693028	40.209353	-0.010203	0.010511
	550.298000	20904.425731	-25.673419	40.225388	-0.010192	0.010517
	550.839000	20894.887106	-25.656564	40.251848	-0.010183	0.010521
	551.383000	20893.719736	-25.625437	40.267224	-0.010181	0.010513
	551.924000	20879.320020	-25.604946	40.294234	-0.010181	0.010508
	552.469000	20873.518592	-25.587547	40.312022	-0.010180	0.010500
	553.011000	20868.506146	-25.556107	40.336079	-0.010173	0.010502
	553.560000	20859.382944	-25.541828	40.355112	-0.010164	0.010507
	554.104000	20859.051250	-25.513097	40.379214	-0.010159	0.010505
	554.649000	20854.154736	-25.491604	40.398695	-0.010163	0.010492
	555.189000	20843.202388	-25.465288	40.418115	-0.010166	0.010482
	555.731000	20831.158344	-25.447474	40.440172	-0.010169	0.010471
	556.278000	20830.189025	-25.420671	40.459607	-0.010177	0.010461
	556.818000	20823.408617	-25.399143	40.481500	-0.010180	0.010458
	557.363000	20818.946847	-25.373941	40.503491	-0.010180	0.010450
	557.908000	20812.994064	-25.358178	40.524883	-0.010180	0.010445
	558.449000	20814.470586	-25.331430	40.547623	-0.010176	0.010443
	558.996000	20796.341729	-25.302283	40.564659	-0.010174	0.010441
	559.539000	20805.910944	-25.287019	40.587401	-0.010165	0.010443
	560.081000	20789.967082	-25.266644	40.610128	-0.010157	0.010445
	560.624000	20776.412707	-25.247052	40.629626	-0.010146	0.010450
	561.168000	20761.428503	-25.212157	40.651094	-0.010136	0.010454
	561.708000	20757.259785	-25.189756	40.674740	-0.010124	0.010461
	562.253000	20754.751146	-25.181722	40.694046	-0.010111	0.010464
	562.798000	20752.886574	-25.144633	40.718341	-0.010100	0.010467
	563.339000	20743.397866	-25.126413	40.736864	-0.010091	0.010467
	563.881000	20736.978135	-25.111171	40.757488	-0.010087	0.010468
	564.421000	20717.971741	-25.079316	40.779108	-0.010078	0.010470
	564.965000	20727.787310	-25.057190	40.804560	-0.010067	0.010475
	565.509000	20702.153475	-25.037423	40.821978	-0.010062	0.010470
	566.049000	20701.878136	-25.010292	40.845391	-0.010059	0.010466
	566.594000	20689.523334	-24.988542	40.866464	-0.010064	0.010455
	567.132000	20690.954772	-24.966880	40.884903	-0.010060	0.010450
	567.681000	20678.857600	-24.958900	40.907577	-0.010063	0.010444
	568.223000	20673.632611	-24.908299	40.933703	-0.010059	0.010445
	568.758000	20666.974576	-24.896407	40.954161	-0.010055	0.010445
	569.293000	20651.858342	-24.878621	40.971613	-0.010048	0.010447
	569.836000	20637.225160	-24.866419	40.997818	-0.010043	0.010448
	570.377000	20636.935330	-24.836789	41.017326	-0.010031	0.010456
	570.923000	20620.065627	-24.819467	41.038716	-0.010022	0.010459
	571.466000	20614.927588	-24.793782	41.060946	-0.010017	0.010462
	572.008000	20613.338355	-24.766606	41.082894	-0.010012	0.010462
	572.544000	20601.980250	-24.752379	41.104574	-0.010002	0.010465
	573.088000	20593.721710	-24.728948	41.129203	-0.009995	0.010466
	573.627000	20581.531150	-24.683712	41.147935	-0.009984	0.010467
	574.174000	20569.912197	-24.678434	41.168459	-0.009982	0.010465
	574.711000	20567.831863	-24.653216	41.190493	-0.009972	0.010469
	575.254000	20553.232495	-24.626845	41.214296	-0.009962	0.010473
	575.794000	20556.161385	-24.598758	41.234450	-0.009955	0.010472
	576.336000	20531.894586	-24.584653	41.258114	-0.009949	0.010480
	576.878000	20519.301483	-24.552904	41.279777	-0.009943	0.010483
	577.420000	20509.804730	-24.540725	41.304618	-0.009946	0.010486
	577.964000	20512.925230	-24.525470	41.331383	-0.009945	0.010491
	578.509000	20491.835288	-24.497029	41.349610	-0.009942	0.010496
	579.052000	20487.207674	-24.471360	41.364946	-0.009944	0.010491
	579.595000	20471.362040	-24.446022	41.389093	-0.009948	0.010486
	580.137000	20458.817244	-24.425264	41.415646	-0.009954	0.010486
	580.682000	20449.012950	-24.392868	41.432872	-0.009955	0.010486
	581.226000	20442.195511	-24.384653	41.457158	-0.009955	0.010488
	581.769000	20430.315716	-24.358627	41.480606	-0.009960	0.010484
	582.316000	20421.008961	-24.334938	41.498145	-0.009969	0.010476
	582.861000	20401.635458	-24.315681	41.519826	-0.009967	0.010477
	583.404000	20396.642338	-24.297042	41.543739	-0.009980	0.010468
	583.949000	20392.146756	-24.271885	41.568249	-0.009981	0.010467
	584.491000	20367.962081	-24.242506	41.587158	-0.009979	0.010476
	585.031000	20351.812130	-24.222608	41.609302	-0.009975	0.010479
	585.575000	20356.563726	-24.193992	41.638522	-0.009972	0.010475
	586.119000	20342.898258	-24.176786	41.655740	-0.009971	0.010475
	586.659000	20330.393719	-24.158759	41.675218	-0.009968	0.010481
	587.202000	20319.209515	-24.135830	41.698875	-0.009967	0.010480
	587.746000	20312.535382	-24.111202	41.726174	-0.009960	0.010484
	588.290000	20293.324509	-24.088405	41.745212	-0.009954	0.010490
	588.831000	20277.261508	-24.069612	41.768169	-0.009950	0.010492
	589.376000	20262.072826	-24.040188	41.789679	-0.009940	0.010497
	589.920000	20259.992493	-24.020380	41.811910	-0.009943	0.010503
	590.463000	20241.089163	-23.981343	41.835642	-0.009938	0.010511
	591.007000	20228.438101	-23.975498	41.858572	-0.009935	0.010513
	591.551000	20210.481549	-23.944348	41.876740	-0.009937	0.010513
	592.094000	20194.231769	-23.925007	41.904807	-0.009939	0.010513
	592.638000	20182.653078	-23.905206	41.928223	-0.009938	0.010513
	593.183000	20159.804848	-23.888132	41.951143	-0.009931	0.010512
	593.725000	20351.725180	-23.844677	41.975113	-0.009925	0.010514
	594.270000	20380.608317	-23.790963	41.997551	-0.009920	0.010524
	594.816000	20333.564133	-23.750789	42.026678	-0.009910	0.010542
	595.357000	20293.723829	-23.714384	42.057740	-0.009906	0.010550
	595.900000	20255.859202	-23.661136	42.089452	-0.010302	0.010438
	596.441000	20208.737740	-23.627107	42.123041	-0.010272	0.010457
	596.986000	20172.919635	-23.576230	42.162867	-0.010253	0.010464
	597.528000	20144.479305	-23.524966	42.205036	-0.010243	0.010462
	598.075000	20097.333699	-23.475927	42.245246	-0.010247	0.010452
	598.619000	20057.786460	-23.426680	42.289969	-0.010247	0.010451
	599.165000	20012.703481	-23.406054	42.342402	-0.010239	0.010458
	599.705000	19984.132735	-23.335555	42.380653	-0.010237	0.010459
	600.247000	19932.575293	-23.295890	42.430613	-0.010238	0.010452
	600.787000	19888.155710	-23.262422	42.473624	-0.010235	0.010455
	601.327000	19841.129274	-23.211786	42.518652	-0.010229	0.010460
	601.874000	19791.576497	-23.149531	42.564008	-0.010225	0.010460
	602.415000	19744.947780	-23.126210	42.610312	-0.010219	0.010468
	602.957000	19699.905076	-23.084600	42.657694	-0.010213	0.010472
	603.499000	19644.718349	-23.030603	42.705426	-0.010208	0.010474
	604.044000	19605.902151	-22.999456	42.753753	-0.010202	0.010478
	604.584000	19550.557637	-22.936696	42.797206	-0.010198	0.010477
	605.129000	19491.767378	-22.900628	42.844003	-0.010191	0.010480
	605.668000	19452.970512	-22.847394	42.886958	-0.010190	0.010477
	606.211000	19394.489414	-22.806782	42.933638	-0.010183	0.010486
	606.754000	19339.531356	-22.762613	42.979812	-0.010178	0.010489
	607.297000	19278.733244	-22.703118	43.031128	-0.010178	0.010489
	607.840000	19231.328464	-22.665131	43.076398	-0.010164	0.010500
	608.384000	19179.577862	-22.615230	43.123064	-0.010162	0.010500
	608.928000	19115.678593	-22.569795	43.170708	-0.010154	0.010512
	609.470000	19063.599526	-22.529892	43.216909	-0.010142	0.010524
	610.015000	19003.936603	-22.483072	43.261111	-0.010141	0.010514
	610.559000	18945.078765	-22.442065	43.312248	-0.010142	0.010511
	611.102000	18887.858468	-22.400739	43.357749	-0.010136	0.010514
	611.646000	18822.561607	-22.343772	43.408869	-0.010141	0.010510
	612.192000	18760.646090	-22.298829	43.455338	-0.010135	0.010514
	612.733000	18705.705794	-22.269428	43.503023	-0.010131	0.010516
	613.279000	18644.555115	-22.219778	43.550318	-0.010123	0.010528
	613.821000	18575.361688	-22.166562	43.601464	-0.010112	0.010540
	614.368000	18514.336612	-22.133606	43.643664	-0.010101	0.010546
	614.914000	18456.955333	-22.088248	43.696370	-0.010093	0.010552
	615.457000	18381.491963	-22.033648	43.739446	-0.010094	0.010550
	616.001000	18313.414403	-21.992148	43.788897	-0.010090	0.010555
	616.540000	18247.352771	-21.945418	43.832578	-0.010084	0.010560
	617.087000	18185.913912	-21.903406	43.883383	-0.010077	0.010566
	617.630000	18107.283388	-21.858396	43.933699	-0.010072	0.010567
	618.177000	18042.786849	-21.802830	43.977070	-0.010070	0.010571
	618.721000	17978.172773	-21.759913	44.023959	-0.010074	0.010563
	619.266000	17903.942835	-21.724204	44.074286	-0.010079	0.010552
	619.806000	17826.904789	-21.667156	44.123449	-0.010080	0.010555
	620.347000	17753.082237	-21.614227	44.166527	-0.010089	0.010553
	620.890000	17668.977220	-21.584282	44.215232	-0.010088	0.010552
	621.430000	17601.139644	-21.541909	44.263854	-0.010092	0.010543
	621.970000	17516.960578	-21.499324	44.311094	-0.010102	0.010533
	622.511000	17440.901547	-21.445078	44.357616	-0.010111	0.010527
	623.058000	17353.877352	-21.396429	44.405620	-0.010108	0.010534
	623.601000	17265.394363	-21.342303	44.454604	-0.010102	0.010542
	624.148000	17177.872650	-21.306667	44.498625	-0.010107	0.010543
	624.689000	17090.130354	-21.247700	44.551558	-0.010108	0.010547
	625.234000	17005.123725	-21.221097	44.598143	-0.010106	0.010556
	625.780000	16905.646627	-21.181433	44.646741	-0.010104	0.010559
	626.325000	16816.382765	-21.119281	44.694533	-0.010094	0.010571
	626.868000	16708.674574	-21.071412	44.745456	-0.010086	0.010575
	627.414000	16605.188226	-21.036262	44.791250	-0.010092	0.010574
	627.956000	16498.496071	-20.981363	44.844608	-0.010090	0.010577
	628.502000	16398.957854	-20.942407	44.885763	-0.010085	0.010586
	629.045000	16281.521160	-20.890931	44.943029	-0.010075	0.010596
	629.591000	16163.865504	-20.856254	44.983737	-0.010070	0.010601
	630.136000	16032.992102	-20.812616	45.030231	-0.010064	0.010608
	630.680000	15881.489421	-20.761819	45.084718	-0.010057	0.010618
	631.225000	27.596491	-20.719965	45.214976	-0.010063	0.010626
	631.765000	31.029307	-20.672450	45.372719	-0.010051	0.010674
	632.310000	27.826741	-20.630361	45.522033	-0.010057	0.010662
	632.853000	25.746441	-20.585399	45.670631	-0.010067	0.010645
	633.396000	28.018347	-20.529981	45.828290	-0.010086	0.010628
	633.939000	31.021256	-20.490574	45.980721	-0.010093	0.010622
	634.476000	26.933114	-20.460336	46.127951	-0.010107	0.010614
